1549505434.403074 /muse/annotation sssss '{"annotation_type": "recorder_info", "libmuse_version": "6.29.1 API Version 9", "recorder_key": "InteraXon", "recorder_name": "Muse Direct", "recorder_version": "0.19.1"}''JSON'''''''
1549505434.403448 /muse/device s '{"processor_speed": "", "hardware_model_id": "Aspire R7-572", "time_zone_offset_seconds": 28800, "time_zone": "", "number_of_processors": 4, "os_version": "10.0.17134.523", "bluetooth_version": "", "memory_size": "", "hardware_model_name": "Acer", "processor_name": "x64", "os_type": "Windows"}'
1549505434.403602 /muse/config s '{"drlref_conversion_factor": 0, "acc_sample_frequency_hz": 52, "battery_percent_remaining": 7600, "eeg_downsample": 4294967295, "notch_frequency_hz": 0, "eeg_locations": [], "eeg_units": 1, "eeg_output_frequency_hz": 256, "eeg_conversion_factor": 0, "eeg_channel_layout": "TP9 FP1 FP2 TP10", "acc_data_enabled": true, "eeg_sample_frequency_hz": 4294967295, "mac_addr": "0055DAB041A9", "preset": "21", "drlref_sample_frequency_hz": 16, "serial_number": "2031-PWHN-41A9", "filters_enabled": false, "battery_millivolts": 0, "acc_units": 1, "battery_data_enabled": true, "afe_gain": 2000.0, "compression_enabled": false, "eeg_channel_count": 4, "error_data_enabled": false, "acc_conversion_factor": 0, "eeg_samples_bitwidth": 16, "drlref_data_enabled": true}'
1549505434.370128 /muse/eeg  
1549505434.370094 /muse/eeg ffffff  856.227112 852.197815 845.750916 842.930420 nan nan
1549505434.403691 /muse/eeg  
1549505434.403654 /muse/eeg ffffff  854.212463 848.571411 848.571411 855.421265 nan nan
1549505434.403723 /muse/eeg  
1549505434.403705 /muse/eeg ffffff  878.388306 843.333313 858.241760 861.868103 nan nan
1549505434.403753 /muse/eeg  
1549505434.403735 /muse/eeg ffffff  868.717957 842.527466 853.003662 853.003662 nan nan
1549505434.403782 /muse/eeg  
1549505434.403765 /muse/eeg ffffff  850.183167 844.945068 844.945068 830.036621 nan nan
1549505434.403812 /muse/eeg  
1549505434.403794 /muse/eeg ffffff  861.465210 848.168518 835.677673 813.919434 nan nan
1549505434.403842 /muse/eeg  
1549505434.403824 /muse/eeg ffffff  871.538452 849.780212 839.706970 823.589722 nan nan
1549505434.405044 /muse/eeg  
1549505434.405290 /muse/eeg  
1549505434.405298 /muse/eeg  
1549505434.405302 /muse/eeg  
1549505434.405306 /muse/eeg  
1549505434.405311 /muse/eeg  
1549505434.405315 /muse/eeg  
1549505434.405320 /muse/eeg  
1549505434.405324 /muse/eeg  
1549505434.405329 /muse/eeg  
1549505434.405333 /muse/eeg  
1549505434.405337 /muse/eeg  
1549505434.405342 /muse/eeg  
1549505434.405346 /muse/eeg  
1549505434.405350 /muse/eeg  
1549505434.405354 /muse/eeg  
1549505434.405358 /muse/eeg  
1549505434.405362 /muse/eeg  
1549505434.405503 /muse/eeg  
1549505434.403854 /muse/eeg ffffff  863.076904 850.183167 859.450562 838.901123 nan nan
1549505434.405551 /muse/eeg  
1549505434.405516 /muse/eeg ffffff  850.183167 847.765564 862.271057 840.915771 nan nan
1549505434.405589 /muse/eeg  
1549505434.405569 /muse/eeg ffffff  848.168518 848.974365 864.688660 850.989014 nan nan
1549505434.405626 /muse/eeg  
1549505434.405606 /muse/eeg ffffff  879.597046 850.183167 859.450562 854.212463 nan nan
1549505434.405663 /muse/eeg  
1549505434.405643 /muse/eeg ffffff  888.461548 855.824158 849.780212 868.315002 nan nan
1549505434.405740 /muse/eeg  
1549505434.405717 /muse/eeg ffffff  863.882812 862.674011 848.571411 866.703308 nan nan
1549505434.405773 /muse/eeg  
1549505434.405754 /muse/eeg ffffff  888.058594 858.644714 842.527466 833.663025 nan nan
1549505434.405805 /muse/eeg  
1549505434.405786 /muse/eeg ffffff  900.952393 853.003662 837.289368 840.512817 nan nan
1549505434.405841 /muse/eeg  
1549505434.405822 /muse/eeg ffffff  862.674011 849.377319 839.706970 842.930420 nan nan
1549505434.405878 /muse/eeg  
1549505434.405859 /muse/eeg ffffff  838.498169 846.959717 847.362610 845.750916 nan nan
1549505434.405915 /muse/eeg  
1549505434.405895 /muse/eeg ffffff  842.527466 845.347961 855.018311 852.600708 nan nan
1549505434.405951 /muse/eeg  
1549505434.405931 /muse/eeg ffffff  851.794861 847.362610 858.241760 847.362610 nan nan
1549505434.405989 /muse/eeg  
1549505434.405969 /muse/eeg ffffff  865.494507 850.183167 847.765564 848.168518 nan nan
1549505434.406025 /muse/eeg  
1549505434.406006 /muse/eeg ffffff  875.567749 850.586060 845.347961 838.095215 nan nan
1549505434.406062 /muse/eeg  
1549505434.406043 /muse/eeg ffffff  862.674011 855.824158 852.600708 846.556763 nan nan
1549505434.406098 /muse/eeg  
1549505434.406079 /muse/eeg ffffff  853.406616 856.227112 851.391968 856.227112 nan nan
1549505434.406135 /muse/eeg  
1549505434.406116 /muse/eeg ffffff  861.465210 853.003662 845.347961 841.721619 nan nan
1549505434.406157 /muse/eeg  
1549505434.406160 /muse/eeg  
1549505434.406164 /muse/eeg  
1549505434.406171 /muse/acc fff  0.294617 0.154236 0.939270
1549505434.406192 /muse/acc fff  0.297363 0.156799 0.939087
1549505434.406201 /muse/acc fff  0.295288 0.156921 0.938965
1549505434.406212 /muse/drlref ff  1697142.875000 1695531.125000
1549505434.406227 /muse/drlref ff  1697142.875000 1695531.125000
1549505434.406240 /muse/drlref ff  1697142.875000 1695531.125000
1549505434.406246 /muse/drlref ff  1697142.875000 1695531.125000
1549505434.406251 /muse/drlref ff  1697142.875000 1695531.125000
1549505434.406261 /muse/drlref ff  1697142.875000 1695531.125000
1549505434.432603 /muse/eeg  
1549505434.432561 /muse/eeg ffffff  848.974365 850.183167 830.439575 839.706970 nan nan
1549505434.432652 /muse/eeg  
1549505434.432631 /muse/eeg ffffff  846.556763 847.765564 831.648376 827.619019 nan nan
1549505434.432684 /muse/eeg  
1549505434.432666 /muse/eeg ffffff  857.032959 848.974365 851.391968 835.677673 nan nan
1549505434.432712 /muse/eeg  
1549505434.432696 /muse/eeg ffffff  862.271057 850.183167 851.794861 848.974365 nan nan
1549505434.432740 /muse/eeg  
1549505434.432723 /muse/eeg ffffff  851.391968 850.586060 841.721619 837.289368 nan nan
1549505434.432765 /muse/eeg  
1549505434.432749 /muse/eeg ffffff  861.062256 844.945068 837.692322 854.615356 nan nan
1549505434.432792 /muse/eeg  
1549505434.432776 /muse/eeg ffffff  860.256409 841.318665 839.706970 840.512817 nan nan
1549505434.432816 /muse/eeg  
1549505434.432800 /muse/eeg ffffff  832.454224 851.391968 845.347961 816.336975 nan nan
1549505434.432843 /muse/eeg  
1549505434.432827 /muse/eeg ffffff  836.483521 850.989014 845.750916 845.347961 nan nan
1549505434.433961 /muse/eeg  
1549505434.434212 /muse/eeg  
1549505434.434221 /muse/eeg  
1549505434.434230 /muse/eeg  
1549505434.434238 /muse/eeg  
1549505434.434249 /muse/eeg  
1549505434.434254 /muse/eeg  
1549505434.434259 /muse/eeg  
1549505434.434264 /muse/eeg  
1549505434.434269 /muse/eeg  
1549505434.434275 /muse/eeg  
1549505434.434279 /muse/eeg  
1549505434.434284 /muse/eeg  
1549505434.434289 /muse/eeg  
1549505434.434294 /muse/eeg  
1549505434.434298 /muse/eeg  
1549505434.434303 /muse/eeg  
1549505434.434308 /muse/eeg  
1549505434.434460 /muse/eeg  
1549505434.432854 /muse/eeg ffffff  846.556763 843.333313 844.945068 863.076904 nan nan
1549505434.434513 /muse/eeg  
1549505434.434476 /muse/eeg ffffff  865.091553 847.765564 841.721619 843.333313 nan nan
1549505434.434548 /muse/eeg  
1549505434.434529 /muse/eeg ffffff  871.135559 856.227112 847.765564 832.857117 nan nan
1549505434.434573 /muse/eeg  
1549505434.434578 /muse/eeg  
1549505434.434583 /muse/eeg  
1549505434.434592 /muse/acc fff  0.297302 0.156311 0.941711
1549505434.434604 /muse/acc fff  0.298096 0.160828 0.932739
1549505434.434611 /muse/acc fff  0.300049 0.161560 0.937866
1549505434.463875 /muse/eeg  
1549505434.463833 /muse/eeg ffffff  849.377319 852.197815 854.212463 849.780212 nan nan
1549505434.463929 /muse/eeg  
1549505434.463907 /muse/eeg ffffff  840.915771 842.124512 845.750916 846.959717 nan nan
1549505434.463959 /muse/eeg  
1549505434.463941 /muse/eeg ffffff  836.886475 836.886475 830.439575 838.095215 nan nan
1549505434.463988 /muse/eeg  
1549505434.463971 /muse/eeg ffffff  850.183167 835.677673 827.619019 846.153870 nan nan
1549505434.464015 /muse/eeg  
1549505434.463999 /muse/eeg ffffff  867.912109 836.483521 840.109863 860.659363 nan nan
1549505434.464135 /muse/eeg  
1549505434.464091 /muse/eeg ffffff  843.333313 841.721619 835.274719 848.974365 nan nan
1549505434.464182 /muse/eeg  
1549505434.464156 /muse/eeg ffffff  834.468872 848.168518 837.692322 842.930420 nan nan
1549505434.464211 /muse/eeg  
1549505434.464195 /muse/eeg ffffff  831.648376 848.974365 836.886475 827.216125 nan nan
1549505434.464237 /muse/eeg  
1549505434.464221 /muse/eeg ffffff  821.978027 847.765564 824.798523 811.904785 nan nan
1549505434.464262 /muse/eeg  
1549505434.464246 /muse/eeg ffffff  844.945068 847.362610 832.454224 819.157532 nan nan
1549505434.464286 /muse/eeg  
1549505434.464271 /muse/eeg ffffff  837.289368 848.168518 830.036621 819.157532 nan nan
1549505434.464307 /muse/eeg  
1549505434.464293 /muse/eeg ffffff  836.080566 847.765564 836.080566 834.871765 nan nan
1549505434.495063 /muse/eeg  
1549505434.495087 /muse/eeg  
1549505434.495093 /muse/eeg  
1549505434.495104 /muse/acc fff  0.300415 0.162048 0.938660
1549505434.495119 /muse/acc fff  0.300171 0.162292 0.938782
1549505434.495126 /muse/acc fff  0.298706 0.163147 0.937927
1549505434.526399 /muse/eeg  
1549505434.526356 /muse/eeg ffffff  840.109863 839.304016 843.333313 864.688660 nan nan
1549505434.526465 /muse/eeg  
1549505434.526431 /muse/eeg ffffff  831.648376 841.318665 837.289368 829.230774 nan nan
1549505434.526512 /muse/eeg  
1549505434.526483 /muse/eeg ffffff  834.871765 848.571411 836.483521 815.934082 nan nan
1549505434.526570 /muse/eeg  
1549505434.526535 /muse/eeg ffffff  828.021973 851.391968 834.871765 813.919434 nan nan
1549505434.526613 /muse/eeg  
1549505434.526590 /muse/eeg ffffff  841.318665 854.615356 837.289368 810.293030 nan nan
1549505434.526669 /muse/eeg  
1549505434.526635 /muse/eeg ffffff  844.542114 846.959717 830.036621 843.333313 nan nan
1549505434.526723 /muse/eeg  
1549505434.526692 /muse/eeg ffffff  819.560425 841.721619 827.619019 831.648376 nan nan
1549505434.526776 /muse/eeg  
1549505434.526743 /muse/eeg ffffff  819.963379 852.197815 846.153870 824.395630 nan nan
1549505434.526830 /muse/eeg  
1549505434.526795 /muse/eeg ffffff  846.153870 858.241760 850.989014 839.304016 nan nan
1549505434.526870 /muse/eeg  
1549505434.526851 /muse/eeg ffffff  848.974365 855.421265 845.347961 848.168518 nan nan
1549505434.526928 /muse/eeg  
1549505434.526892 /muse/eeg ffffff  823.589722 852.600708 848.571411 847.765564 nan nan
1549505434.528250 /muse/eeg  
1549505434.528495 /muse/eeg  
1549505434.528503 /muse/eeg  
1549505434.528509 /muse/eeg  
1549505434.528513 /muse/eeg  
1549505434.528518 /muse/eeg  
1549505434.528524 /muse/eeg  
1549505434.528528 /muse/eeg  
1549505434.528533 /muse/eeg  
1549505434.528537 /muse/eeg  
1549505434.528544 /muse/eeg  
1549505434.528548 /muse/eeg  
1549505434.528553 /muse/eeg  
1549505434.528558 /muse/eeg  
1549505434.528562 /muse/eeg  
1549505434.528568 /muse/eeg  
1549505434.528572 /muse/eeg  
1549505434.528579 /muse/eeg  
1549505434.528714 /muse/eeg  
1549505434.526949 /muse/eeg ffffff  823.992676 854.212463 848.571411 832.857117 nan nan
1549505434.557630 /muse/eeg  
1549505434.557657 /muse/eeg  
1549505434.557661 /muse/eeg  
1549505434.557672 /muse/acc fff  0.298035 0.163269 0.935730
1549505434.557684 /muse/acc fff  0.297119 0.164856 0.931274
1549505434.557692 /muse/acc fff  0.298462 0.167480 0.935303
1549505434.588936 /muse/eeg  
1549505434.588896 /muse/eeg ffffff  837.289368 853.003662 841.721619 828.424927 nan nan
1549505434.588985 /muse/eeg  
1549505434.588967 /muse/eeg ffffff  835.677673 853.003662 838.901123 827.216125 nan nan
1549505434.589014 /muse/eeg  
1549505434.588995 /muse/eeg ffffff  819.157532 849.780212 837.289368 836.483521 nan nan
1549505434.589041 /muse/eeg  
1549505434.589026 /muse/eeg ffffff  819.157532 839.706970 843.333313 860.256409 nan nan
1549505434.589079 /muse/eeg  
1549505434.589059 /muse/eeg ffffff  851.794861 843.736267 854.615356 863.882812 nan nan
1549505434.589113 /muse/eeg  
1549505434.589094 /muse/eeg ffffff  853.003662 852.197815 849.377319 855.421265 nan nan
1549505434.589141 /muse/eeg  
1549505434.589125 /muse/eeg ffffff  831.245422 854.212463 850.586060 851.794861 nan nan
1549505434.589176 /muse/eeg  
1549505434.589157 /muse/eeg ffffff  837.289368 846.959717 844.945068 834.871765 nan nan
1549505434.589210 /muse/eeg  
1549505434.589191 /muse/eeg ffffff  846.153870 848.571411 838.095215 825.604370 nan nan
1549505434.589238 /muse/eeg  
1549505434.589222 /muse/eeg ffffff  836.483521 858.644714 850.183167 835.274719 nan nan
1549505434.589275 /muse/eeg  
1549505434.589256 /muse/eeg ffffff  834.871765 855.824158 854.615356 862.271057 nan nan
1549505434.589303 /muse/eeg  
1549505434.589287 /muse/eeg ffffff  858.241760 851.391968 854.212463 873.553101 nan nan
1549505434.589326 /muse/drlref ff  1697142.875000 1695531.125000
1549505434.589334 /muse/drlref ff  1697142.875000 1695531.125000
1549505434.589348 /muse/drlref ff  1697142.875000 1695531.125000
1549505434.589354 /muse/drlref ff  1697142.875000 1695531.125000
1549505434.589360 /muse/drlref ff  1697142.875000 1695531.125000
1549505434.589369 /muse/drlref ff  1697142.875000 1695531.125000
1549505434.620109 /muse/eeg  
1549505434.620138 /muse/eeg  
1549505434.620142 /muse/eeg  
1549505434.620154 /muse/acc fff  0.298401 0.167786 0.935486
1549505434.620170 /muse/acc fff  0.295898 0.168518 0.932922
1549505434.620183 /muse/acc fff  0.293518 0.170227 0.931396
1549505434.620266 /muse/eeg  
1549505434.620230 /muse/eeg ffffff  853.003662 850.989014 848.571411 845.347961 nan nan
1549505434.620300 /muse/eeg  
1549505434.620283 /muse/eeg ffffff  848.168518 844.139221 842.527466 840.109863 nan nan
1549505434.620339 /muse/eeg  
1549505434.620320 /muse/eeg ffffff  856.227112 841.721619 848.168518 859.450562 nan nan
1549505434.620368 /muse/eeg  
1549505434.620353 /muse/eeg ffffff  844.139221 848.168518 857.838806 864.285706 nan nan
1549505434.620401 /muse/eeg  
1549505434.620385 /muse/eeg ffffff  851.794861 848.974365 855.018311 855.421265 nan nan
1549505434.620432 /muse/eeg  
1549505434.620416 /muse/eeg ffffff  857.032959 847.362610 844.945068 853.809509 nan nan
1549505434.620464 /muse/eeg  
1549505434.620448 /muse/eeg ffffff  836.080566 845.347961 857.435913 862.271057 nan nan
1549505434.620501 /muse/eeg  
1549505434.620482 /muse/eeg ffffff  838.901123 848.974365 864.285706 840.512817 nan nan
1549505434.620530 /muse/eeg  
1549505434.620514 /muse/eeg ffffff  850.183167 855.018311 849.377319 843.333313 nan nan
1549505434.620557 /muse/eeg  
1549505434.620539 /muse/eeg ffffff  856.227112 855.824158 848.974365 856.630066 nan nan
1549505434.620584 /muse/eeg  
1549505434.620569 /muse/eeg ffffff  844.945068 854.212463 845.347961 844.139221 nan nan
1549505434.620619 /muse/eeg  
1549505434.620599 /muse/eeg ffffff  841.721619 859.853455 843.333313 842.930420 nan nan
1549505434.651496 /muse/eeg  
1549505434.651458 /muse/eeg ffffff  838.095215 859.047607 848.571411 852.197815 nan nan
1549505434.652592 /muse/eeg  
1549505434.652844 /muse/eeg  
1549505434.652853 /muse/eeg  
1549505434.652857 /muse/eeg  
1549505434.652862 /muse/eeg  
1549505434.652867 /muse/eeg  
1549505434.652872 /muse/eeg  
1549505434.652877 /muse/eeg  
1549505434.652881 /muse/eeg  
1549505434.652888 /muse/eeg  
1549505434.652893 /muse/eeg  
1549505434.652897 /muse/eeg  
1549505434.652902 /muse/eeg  
1549505434.652907 /muse/eeg  
1549505434.652912 /muse/eeg  
1549505434.652917 /muse/eeg  
1549505434.652921 /muse/eeg  
1549505434.652926 /muse/eeg  
1549505434.653055 /muse/eeg  
1549505434.651523 /muse/eeg ffffff  830.842468 848.571411 855.018311 873.956055 nan nan
1549505434.653102 /muse/eeg  
1549505434.653071 /muse/eeg ffffff  838.095215 842.930420 853.406616 863.076904 nan nan
1549505434.653129 /muse/eeg  
1549505434.653113 /muse/eeg ffffff  839.304016 845.750916 850.586060 842.527466 nan nan
1549505434.653156 /muse/eeg  
1549505434.653141 /muse/eeg ffffff  847.765564 848.974365 856.227112 847.362610 nan nan
1549505434.653182 /muse/eeg  
1549505434.653166 /muse/eeg ffffff  847.765564 848.974365 848.168518 835.677673 nan nan
1549505434.653209 /muse/eeg  
1549505434.653193 /muse/eeg ffffff  835.274719 851.794861 841.721619 836.483521 nan nan
1549505434.653237 /muse/eeg  
1549505434.653221 /muse/eeg ffffff  840.915771 848.571411 836.080566 846.153870 nan nan
1549505434.653264 /muse/eeg  
1549505434.653248 /muse/eeg ffffff  822.783875 851.391968 832.454224 854.615356 nan nan
1549505434.653290 /muse/eeg  
1549505434.653275 /muse/eeg ffffff  824.395630 858.644714 847.765564 841.721619 nan nan
1549505434.653317 /muse/eeg  
1549505434.653302 /muse/eeg ffffff  836.483521 858.644714 853.809509 826.410278 nan nan
1549505434.653344 /muse/eeg  
1549505434.653329 /muse/eeg ffffff  846.153870 855.824158 850.989014 840.109863 nan nan
1549505434.682609 /muse/eeg  
1549505434.682643 /muse/eeg  
1549505434.682648 /muse/eeg  
1549505434.682661 /muse/acc fff  0.294006 0.172546 0.930298
1549505434.682674 /muse/acc fff  0.294739 0.175232 0.931274
1549505434.682680 /muse/acc fff  0.296143 0.176880 0.933716
1549505434.713846 /muse/eeg  
1549505434.713807 /muse/eeg ffffff  846.153870 844.139221 838.095215 842.527466 nan nan
1549505434.713891 /muse/eeg  
1549505434.713874 /muse/eeg ffffff  827.619019 838.901123 834.871765 839.706970 nan nan
1549505434.713915 /muse/eeg  
1549505434.713900 /muse/eeg ffffff  837.692322 845.750916 847.765564 835.274719 nan nan
1549505434.713941 /muse/eeg  
1549505434.713926 /muse/eeg ffffff  827.619019 851.391968 848.974365 835.274719 nan nan
1549505434.713967 /muse/eeg  
1549505434.713952 /muse/eeg ffffff  809.487183 854.212463 846.153870 820.366272 nan nan
1549505434.713992 /muse/eeg  
1549505434.713977 /muse/eeg ffffff  820.769226 852.600708 834.468872 819.963379 nan nan
1549505434.714019 /muse/eeg  
1549505434.714003 /muse/eeg ffffff  832.454224 855.824158 836.080566 846.556763 nan nan
1549505434.714044 /muse/eeg  
1549505434.714029 /muse/eeg ffffff  834.468872 857.032959 848.168518 846.959717 nan nan
1549505434.714068 /muse/eeg  
1549505434.714053 /muse/eeg ffffff  842.930420 851.391968 845.347961 833.260071 nan nan
1549505434.714094 /muse/eeg  
1549505434.714079 /muse/eeg ffffff  837.692322 848.974365 842.124512 840.512817 nan nan
1549505434.714122 /muse/eeg  
1549505434.714103 /muse/eeg ffffff  815.128235 847.362610 844.542114 840.915771 nan nan
1549505434.714209 /muse/eeg  
1549505434.714176 /muse/eeg ffffff  813.113525 846.556763 849.780212 846.153870 nan nan
1549505434.714237 /muse/eeg  
1549505434.714247 /muse/eeg  
1549505434.714250 /muse/eeg  
1549505434.714258 /muse/acc fff  0.292908 0.178589 0.934631
1549505434.714271 /muse/acc fff  0.294373 0.180603 0.935547
1549505434.714284 /muse/acc fff  0.294067 0.182190 0.936279
1549505434.745200 /muse/eeg  
1549505434.745171 /muse/eeg ffffff  840.512817 846.556763 848.168518 858.241760 nan nan
1549505434.745239 /muse/eeg  
1549505434.745224 /muse/eeg ffffff  819.963379 845.750916 843.333313 831.245422 nan nan
1549505434.745275 /muse/eeg  
1549505434.745255 /muse/eeg ffffff  809.084229 844.945068 840.512817 828.827820 nan nan
1549505434.746263 /muse/eeg  
1549505434.746609 /muse/eeg  
1549505434.746618 /muse/eeg  
1549505434.746623 /muse/eeg  
1549505434.746627 /muse/eeg  
1549505434.746633 /muse/eeg  
1549505434.746637 /muse/eeg  
1549505434.746642 /muse/eeg  
1549505434.746646 /muse/eeg  
1549505434.746651 /muse/eeg  
1549505434.746656 /muse/eeg  
1549505434.746661 /muse/eeg  
1549505434.746666 /muse/eeg  
1549505434.746671 /muse/eeg  
1549505434.746677 /muse/eeg  
1549505434.746683 /muse/eeg  
1549505434.746688 /muse/eeg  
1549505434.746694 /muse/eeg  
1549505434.747966 /muse/eeg  
1549505434.745287 /muse/eeg ffffff  828.021973 846.556763 836.886475 846.556763 nan nan
1549505434.748012 /muse/eeg  
1549505434.747982 /muse/eeg ffffff  819.560425 846.959717 836.483521 829.633728 nan nan
1549505434.748043 /muse/eeg  
1549505434.748027 /muse/eeg ffffff  825.604370 846.153870 830.036621 829.633728 nan nan
1549505434.748073 /muse/eeg  
1549505434.748057 /muse/eeg ffffff  816.739929 839.304016 835.274719 826.410278 nan nan
1549505434.748101 /muse/eeg  
1549505434.748084 /muse/eeg ffffff  803.040283 834.871765 834.065918 830.842468 nan nan
1549505434.748127 /muse/eeg  
1549505434.748112 /muse/eeg ffffff  809.084229 846.556763 821.575073 842.124512 nan nan
1549505434.748155 /muse/eeg  
1549505434.748139 /muse/eeg ffffff  823.992676 863.882812 839.706970 846.556763 nan nan
1549505434.748184 /muse/eeg  
1549505434.748168 /muse/eeg ffffff  813.113525 867.912109 842.124512 836.886475 nan nan
1549505434.748211 /muse/eeg  
1549505434.748196 /muse/eeg ffffff  793.369934 855.421265 834.468872 824.395630 nan nan
1549505434.776341 /muse/eeg  
1549505434.776388 /muse/eeg  
1549505434.776392 /muse/eeg  
1549505434.796652 /muse/acc fff  0.293579 0.182495 0.938171
1549505434.796686 /muse/acc fff  0.293518 0.186096 0.935791
1549505434.796697 /muse/acc fff  0.294495 0.186829 0.936035
1549505434.851786 /muse/eeg  
1549505434.851740 /muse/eeg ffffff  806.666687 847.362610 824.798523 840.512817 nan nan
1549505434.851830 /muse/eeg  
1549505434.851813 /muse/eeg ffffff  807.472534 848.974365 827.216125 833.663025 nan nan
1549505434.851855 /muse/eeg  
1549505434.851839 /muse/eeg ffffff  803.040283 850.183167 840.915771 819.560425 nan nan
1549505434.851889 /muse/eeg  
1549505434.851867 /muse/eeg ffffff  817.545776 853.406616 837.289368 834.468872 nan nan
1549505434.851920 /muse/eeg  
1549505434.851904 /muse/eeg ffffff  818.351624 859.047607 835.274719 835.274719 nan nan
1549505434.851960 /muse/eeg  
1549505434.851940 /muse/eeg ffffff  801.831482 860.256409 828.021973 834.871765 nan nan
1549505434.851990 /muse/eeg  
1549505434.851973 /muse/eeg ffffff  824.798523 859.450562 838.095215 830.439575 nan nan
1549505434.852030 /muse/eeg  
1549505434.852009 /muse/eeg ffffff  840.109863 857.435913 848.974365 836.080566 nan nan
1549505434.852058 /muse/eeg  
1549505434.852043 /muse/eeg ffffff  792.161194 855.421265 844.945068 836.886475 nan nan
1549505434.852099 /muse/eeg  
1549505434.852078 /muse/eeg ffffff  779.670349 863.479858 847.765564 845.750916 nan nan
1549505434.852127 /muse/eeg  
1549505434.852111 /muse/eeg ffffff  791.355286 867.106201 843.333313 847.765564 nan nan
1549505434.852166 /muse/eeg  
1549505434.852146 /muse/eeg ffffff  787.728943 861.465210 840.109863 823.589722 nan nan
1549505434.852187 /muse/drlref ff  1697142.875000 1695531.125000
1549505434.852194 /muse/drlref ff  1697142.875000 1695531.125000
1549505434.852210 /muse/drlref ff  1697142.875000 1695531.125000
1549505434.852215 /muse/drlref ff  1697142.875000 1695531.125000
1549505434.852221 /muse/drlref ff  1697142.875000 1695531.125000
1549505434.852231 /muse/drlref ff  1697142.875000 1695531.125000
1549505434.852241 /muse/eeg  
1549505434.852245 /muse/eeg  
1549505434.852249 /muse/eeg  
1549505434.852256 /muse/acc fff  0.295654 0.187866 0.933838
1549505434.852269 /muse/acc fff  0.293274 0.187988 0.933716
1549505434.852279 /muse/acc fff  0.294128 0.189880 0.932190
1549505434.852330 /muse/eeg  
1549505434.852314 /muse/eeg ffffff  794.578735 856.630066 840.512817 822.783875 nan nan
1549505434.852357 /muse/eeg  
1549505434.852342 /muse/eeg ffffff  790.952393 858.644714 844.139221 840.512817 nan nan
1549505434.852398 /muse/eeg  
1549505434.852377 /muse/eeg ffffff  791.355286 858.644714 844.945068 836.483521 nan nan
1549505434.852427 /muse/eeg  
1549505434.852411 /muse/eeg ffffff  800.622681 856.630066 840.915771 820.769226 nan nan
1549505434.852468 /muse/eeg  
1549505434.852446 /muse/eeg ffffff  771.208801 855.824158 845.750916 843.333313 nan nan
1549505434.853551 /muse/eeg  
1549505434.853752 /muse/eeg  
1549505434.853760 /muse/eeg  
1549505434.853765 /muse/eeg  
1549505434.853773 /muse/eeg  
1549505434.853782 /muse/eeg  
1549505434.853789 /muse/eeg  
1549505434.853794 /muse/eeg  
1549505434.853800 /muse/eeg  
1549505434.853807 /muse/eeg  
1549505434.853812 /muse/eeg  
1549505434.853817 /muse/eeg  
1549505434.853822 /muse/eeg  
1549505434.853827 /muse/eeg  
1549505434.853833 /muse/eeg  
1549505434.853837 /muse/eeg  
1549505434.853842 /muse/eeg  
1549505434.853847 /muse/eeg  
1549505434.853982 /muse/eeg  
1549505434.852480 /muse/eeg ffffff  749.450562 845.347961 845.750916 840.109863 nan nan
1549505434.854027 /muse/eeg  
1549505434.853996 /muse/eeg ffffff  737.362610 840.109863 858.644714 824.798523 nan nan
1549505434.854074 /muse/eeg  
1549505434.854047 /muse/eeg ffffff  741.391968 845.750916 864.688660 831.648376 nan nan
1549505434.854105 /muse/eeg  
1549505434.854084 /muse/eeg ffffff  741.391968 851.391968 852.600708 828.021973 nan nan
1549505434.854146 /muse/eeg  
1549505434.854125 /muse/eeg ffffff  714.395630 849.377319 862.271057 831.648376 nan nan
1549505434.854184 /muse/eeg  
1549505434.854165 /muse/eeg ffffff  720.036621 850.989014 860.659363 843.333313 nan nan
1549505434.854216 /muse/eeg  
1549505434.854197 /muse/eeg ffffff  727.692322 858.644714 850.183167 838.901123 nan nan
1549505434.882895 /muse/eeg  
1549505434.882927 /muse/eeg  
1549505434.882933 /muse/eeg  
1549505434.882945 /muse/acc fff  0.290466 0.190918 0.936279
1549505434.882959 /muse/acc fff  0.286316 0.189941 0.939758
1549505434.882966 /muse/acc fff  0.288269 0.193970 0.933044
1549505434.914324 /muse/eeg  
1549505434.914286 /muse/eeg ffffff  706.336975 858.644714 847.765564 820.366272 nan nan
1549505434.914374 /muse/eeg  
1549505434.914354 /muse/eeg ffffff  692.637390 862.271057 847.362610 837.289368 nan nan
1549505434.914406 /muse/eeg  
1549505434.914390 /muse/eeg ffffff  674.102539 863.882812 852.600708 845.750916 nan nan
1549505434.914443 /muse/eeg  
1549505434.914418 /muse/eeg ffffff  669.670349 861.465210 853.003662 842.527466 nan nan
1549505434.914478 /muse/eeg  
1549505434.914460 /muse/eeg ffffff  668.058594 860.659363 859.853455 844.945068 nan nan
1549505434.914505 /muse/eeg  
1549505434.914489 /muse/eeg ffffff  674.102539 858.241760 849.780212 841.318665 nan nan
1549505434.914531 /muse/eeg  
1549505434.914516 /muse/eeg ffffff  670.073242 859.450562 850.586060 835.274719 nan nan
1549505434.914558 /muse/eeg  
1549505434.914543 /muse/eeg ffffff  653.956055 863.479858 872.344299 840.915771 nan nan
1549505434.914583 /muse/eeg  
1549505434.914568 /muse/eeg ffffff  664.029297 861.062256 870.732605 842.930420 nan nan
1549505434.914610 /muse/eeg  
1549505434.914594 /muse/eeg ffffff  688.205139 860.659363 869.120850 850.183167 nan nan
1549505434.914637 /muse/eeg  
1549505434.914621 /muse/eeg ffffff  701.098877 857.032959 860.659363 852.197815 nan nan
1549505434.914663 /muse/eeg  
1549505434.914647 /muse/eeg ffffff  704.725281 854.212463 861.465210 841.721619 nan nan
1549505434.945553 /muse/eeg  
1549505434.945515 /muse/eeg ffffff  712.783875 861.465210 866.703308 840.512817 nan nan
1549505434.945598 /muse/eeg  
1549505434.945581 /muse/eeg ffffff  695.860779 865.494507 863.479858 836.483521 nan nan
1549505434.945632 /muse/eeg  
1549505434.945615 /muse/eeg ffffff  699.487183 863.479858 865.091553 842.527466 nan nan
1549505434.945668 /muse/eeg  
1549505434.945649 /muse/eeg ffffff  716.007324 864.285706 856.630066 847.362610 nan nan
1549505434.945753 /muse/eeg  
1549505434.945685 /muse/eeg ffffff  693.846130 860.256409 852.197815 842.527466 nan nan
1549505434.945781 /muse/eeg  
1549505434.945766 /muse/eeg ffffff  676.117188 855.824158 854.615356 841.318665 nan nan
1549505434.945843 /muse/eeg  
1549505434.945789 /muse/eeg ffffff  669.267395 861.062256 863.076904 849.377319 nan nan
1549505434.947091 /muse/eeg  
1549505434.947350 /muse/eeg  
1549505434.947361 /muse/eeg  
1549505434.947368 /muse/eeg  
1549505434.947371 /muse/eeg  
1549505434.947375 /muse/eeg  
1549505434.947379 /muse/eeg  
1549505434.947383 /muse/eeg  
1549505434.947390 /muse/eeg  
1549505434.947399 /muse/eeg  
1549505434.947406 /muse/eeg  
1549505434.947414 /muse/eeg  
1549505434.947419 /muse/eeg  
1549505434.947423 /muse/eeg  
1549505434.947429 /muse/eeg  
1549505434.947434 /muse/eeg  
1549505434.947439 /muse/eeg  
1549505434.947444 /muse/eeg  
1549505434.947573 /muse/eeg  
1549505434.945856 /muse/eeg ffffff  676.923096 860.659363 860.256409 850.989014 nan nan
1549505434.947625 /muse/eeg  
1549505434.947594 /muse/eeg ffffff  685.787537 859.047607 853.003662 844.945068 nan nan
1549505434.947662 /muse/eeg  
1549505434.947639 /muse/eeg ffffff  703.516479 861.868103 864.285706 831.648376 nan nan
1549505434.947693 /muse/eeg  
1549505434.947677 /muse/eeg ffffff  702.307678 859.853455 860.659363 836.080566 nan nan
1549505434.947720 /muse/eeg  
1549505434.947705 /muse/eeg ffffff  701.904785 860.256409 856.630066 834.871765 nan nan
1549505434.947743 /muse/eeg  
1549505434.947749 /muse/eeg  
1549505434.947753 /muse/eeg  
1549505434.947760 /muse/acc fff  0.283997 0.189697 0.941772
1549505434.947777 /muse/acc fff  0.278503 0.187561 0.934448
1549505434.947786 /muse/acc fff  0.282654 0.190430 0.937439
1549505435.008005 /muse/eeg  
1549505435.007957 /muse/eeg ffffff  708.351624 861.868103 852.600708 821.978027 nan nan
1549505435.008052 /muse/eeg  
1549505435.008035 /muse/eeg ffffff  708.351624 858.644714 850.183167 833.663025 nan nan
1549505435.008077 /muse/eeg  
1549505435.008062 /muse/eeg ffffff  707.948730 855.421265 861.868103 846.959717 nan nan
1549505435.008103 /muse/eeg  
1549505435.008088 /muse/eeg ffffff  742.197815 858.644714 867.509155 840.512817 nan nan
1549505435.008127 /muse/eeg  
1549505435.008112 /muse/eeg ffffff  767.985352 856.630066 861.062256 824.798523 nan nan
1549505435.008153 /muse/eeg  
1549505435.008137 /muse/eeg ffffff  776.849792 848.168518 846.153870 826.813171 nan nan
1549505435.008179 /muse/eeg  
1549505435.008164 /muse/eeg ffffff  804.249084 853.406616 850.183167 830.439575 nan nan
1549505435.008203 /muse/eeg  
1549505435.008188 /muse/eeg ffffff  808.278381 858.241760 860.256409 837.289368 nan nan
1549505435.008229 /muse/eeg  
1549505435.008213 /muse/eeg ffffff  805.860779 853.809509 857.838806 840.512817 nan nan
1549505435.008256 /muse/eeg  
1549505435.008240 /muse/eeg ffffff  823.992676 849.377319 857.435913 838.095215 nan nan
1549505435.008283 /muse/eeg  
1549505435.008267 /muse/eeg ffffff  834.468872 847.765564 851.794861 838.095215 nan nan
1549505435.008307 /muse/eeg  
1549505435.008292 /muse/eeg ffffff  844.945068 850.989014 857.838806 828.424927 nan nan
1549505435.008325 /muse/eeg  
1549505435.008329 /muse/eeg  
1549505435.008334 /muse/eeg  
1549505435.008343 /muse/acc fff  0.283081 0.193481 0.933899
1549505435.008353 /muse/acc fff  0.283508 0.192261 0.939026
1549505435.008358 /muse/acc fff  0.278931 0.191345 0.940002
1549505435.039261 /muse/drlref ff  1697142.875000 1695531.125000
1549505435.039298 /muse/drlref ff  1697142.875000 1695531.125000
1549505435.039313 /muse/drlref ff  1697142.875000 1695531.125000
1549505435.039319 /muse/drlref ff  1697142.875000 1695531.125000
1549505435.039325 /muse/drlref ff  1697142.875000 1695531.125000
1549505435.039337 /muse/drlref ff  1697142.875000 1695531.125000
1549505435.039407 /muse/eeg  
1549505435.039376 /muse/eeg ffffff  848.974365 850.183167 864.285706 833.260071 nan nan
1549505435.039450 /muse/eeg  
1549505435.039427 /muse/eeg ffffff  833.260071 850.586060 867.106201 832.857117 nan nan
1549505435.039498 /muse/eeg  
1549505435.039464 /muse/eeg ffffff  847.362610 850.586060 869.926758 833.260071 nan nan
1549505435.039533 /muse/eeg  
1549505435.039513 /muse/eeg ffffff  863.076904 850.183167 862.674011 821.978027 nan nan
1549505435.039557 /muse/eeg  
1549505435.039542 /muse/eeg ffffff  855.421265 847.765564 863.882812 817.948730 nan nan
1549505435.039586 /muse/eeg  
1549505435.039569 /muse/eeg ffffff  847.362610 844.945068 859.853455 834.468872 nan nan
1549505435.039611 /muse/eeg  
1549505435.039595 /muse/eeg ffffff  862.674011 850.989014 858.644714 823.589722 nan nan
1549505435.039639 /muse/eeg  
1549505435.039623 /muse/eeg ffffff  877.179504 853.809509 857.435913 813.919434 nan nan
1549505435.039670 /muse/eeg  
1549505435.039654 /muse/eeg ffffff  867.106201 855.421265 850.183167 828.424927 nan nan
1549505435.040827 /muse/eeg  
1549505435.041084 /muse/eeg  
1549505435.041092 /muse/eeg  
1549505435.041097 /muse/eeg  
1549505435.041101 /muse/eeg  
1549505435.041106 /muse/eeg  
1549505435.041111 /muse/eeg  
1549505435.041115 /muse/eeg  
1549505435.041120 /muse/eeg  
1549505435.041125 /muse/eeg  
1549505435.041130 /muse/eeg  
1549505435.041135 /muse/eeg  
1549505435.041140 /muse/eeg  
1549505435.041144 /muse/eeg  
1549505435.041149 /muse/eeg  
1549505435.041155 /muse/eeg  
1549505435.041159 /muse/eeg  
1549505435.041166 /muse/eeg  
1549505435.041301 /muse/eeg  
1549505435.039681 /muse/eeg ffffff  865.091553 863.076904 862.271057 833.663025 nan nan
1549505435.041351 /muse/eeg  
1549505435.041319 /muse/eeg ffffff  868.315002 857.838806 864.688660 838.498169 nan nan
1549505435.041381 /muse/eeg  
1549505435.041364 /muse/eeg ffffff  871.135559 848.571411 869.120850 845.750916 nan nan
1549505435.070417 /muse/eeg  
1549505435.070441 /muse/eeg  
1549505435.070450 /muse/eeg  
1549505435.070466 /muse/acc fff  0.273926 0.190613 0.938721
1549505435.070482 /muse/acc fff  0.276001 0.191711 0.942139
1549505435.070490 /muse/acc fff  0.279663 0.191162 0.940247
1549505435.101794 /muse/eeg  
1549505435.101750 /muse/eeg ffffff  882.820496 848.571411 862.271057 835.274719 nan nan
1549505435.101853 /muse/eeg  
1549505435.101830 /muse/eeg ffffff  892.087891 852.600708 857.032959 830.842468 nan nan
1549505435.101886 /muse/eeg  
1549505435.101868 /muse/eeg ffffff  891.282043 855.824158 863.882812 819.560425 nan nan
1549505435.101913 /muse/eeg  
1549505435.101897 /muse/eeg ffffff  877.179504 855.018311 855.824158 806.666687 nan nan
1549505435.101940 /muse/eeg  
1549505435.101924 /muse/eeg ffffff  877.582397 850.989014 857.032959 832.454224 nan nan
1549505435.101973 /muse/eeg  
1549505435.101952 /muse/eeg ffffff  886.446899 851.391968 849.377319 844.945068 nan nan
1549505435.102001 /muse/eeg  
1549505435.101986 /muse/eeg ffffff  891.684998 857.032959 848.974365 839.304016 nan nan
1549505435.102028 /muse/eeg  
1549505435.102013 /muse/eeg ffffff  889.670349 858.241760 863.479858 845.750916 nan nan
1549505435.102058 /muse/eeg  
1549505435.102040 /muse/eeg ffffff  894.102539 855.018311 867.106201 832.857117 nan nan
1549505435.102087 /muse/eeg  
1549505435.102069 /muse/eeg ffffff  904.175842 852.197815 864.688660 834.065918 nan nan
1549505435.102117 /muse/eeg  
1549505435.102099 /muse/eeg ffffff  906.190491 849.377319 855.018311 848.571411 nan nan
1549505435.102144 /muse/eeg  
1549505435.102129 /muse/eeg ffffff  907.399292 849.377319 855.421265 833.663025 nan nan
1549505435.132976 /muse/eeg  
1549505435.133001 /muse/eeg  
1549505435.133004 /muse/eeg  
1549505435.133014 /muse/acc fff  0.284546 0.192078 0.935608
1549505435.133031 /muse/acc fff  0.279968 0.187317 0.937744
1549505435.133044 /muse/acc fff  0.271362 0.184814 0.942444
1549505435.133113 /muse/eeg  
1549505435.133082 /muse/eeg ffffff  901.355286 846.556763 852.197815 821.978027 nan nan
1549505435.133151 /muse/eeg  
1549505435.133127 /muse/eeg ffffff  916.263733 843.736267 852.600708 831.245422 nan nan
1549505435.133189 /muse/eeg  
1549505435.133165 /muse/eeg ffffff  925.531128 845.347961 856.630066 841.318665 nan nan
1549505435.133219 /muse/eeg  
1549505435.133200 /muse/eeg ffffff  903.369934 850.989014 851.391968 835.274719 nan nan
1549505435.133257 /muse/eeg  
1549505435.133238 /muse/eeg ffffff  891.282043 864.688660 864.285706 844.542114 nan nan
1549505435.133289 /muse/eeg  
1549505435.133270 /muse/eeg ffffff  895.311340 864.285706 861.465210 838.498169 nan nan
1549505435.133326 /muse/eeg  
1549505435.133306 /muse/eeg ffffff  888.058594 855.018311 855.824158 843.736267 nan nan
1549505435.133362 /muse/eeg  
1549505435.133343 /muse/eeg ffffff  899.743591 848.974365 860.659363 846.959717 nan nan
1549505435.133399 /muse/eeg  
1549505435.133379 /muse/eeg ffffff  911.831482 846.959717 854.212463 830.439575 nan nan
1549505435.133436 /muse/eeg  
1549505435.133417 /muse/eeg ffffff  918.278381 853.406616 862.674011 842.527466 nan nan
1549505435.133473 /muse/eeg  
1549505435.133454 /muse/eeg ffffff  903.772888 851.794861 867.912109 854.212463 nan nan
1549505435.134596 /muse/eeg  
1549505435.134836 /muse/eeg  
1549505435.134843 /muse/eeg  
1549505435.134849 /muse/eeg  
1549505435.134855 /muse/eeg  
1549505435.134864 /muse/eeg  
1549505435.134871 /muse/eeg  
1549505435.134874 /muse/eeg  
1549505435.134878 /muse/eeg  
1549505435.134883 /muse/eeg  
1549505435.134887 /muse/eeg  
1549505435.134892 /muse/eeg  
1549505435.134896 /muse/eeg  
1549505435.134901 /muse/eeg  
1549505435.134905 /muse/eeg  
1549505435.134909 /muse/eeg  
1549505435.134915 /muse/eeg  
1549505435.134919 /muse/eeg  
1549505435.135045 /muse/eeg  
1549505435.133495 /muse/eeg ffffff  886.446899 856.227112 863.076904 855.018311 nan nan
1549505435.164220 /muse/eeg  
1549505435.164243 /muse/eeg  
1549505435.164276 /muse/eeg  
1549505435.226740 /muse/acc fff  0.272827 0.187195 0.937073
1549505435.226780 /muse/acc fff  0.277222 0.185791 0.924927
1549505435.226789 /muse/acc fff  0.279968 0.182922 0.931641
1549505435.258030 /muse/eeg  
1549505435.257987 /muse/eeg ffffff  895.311340 857.435913 858.241760 852.600708 nan nan
1549505435.258088 /muse/eeg  
1549505435.258067 /muse/eeg ffffff  893.699646 853.003662 855.421265 829.230774 nan nan
1549505435.258118 /muse/eeg  
1549505435.258099 /muse/eeg ffffff  897.728943 856.227112 859.853455 838.095215 nan nan
1549505435.258149 /muse/eeg  
1549505435.258131 /muse/eeg ffffff  900.146545 855.421265 862.271057 853.003662 nan nan
1549505435.258180 /muse/eeg  
1549505435.258163 /muse/eeg ffffff  894.505493 855.018311 864.285706 828.021973 nan nan
1549505435.258210 /muse/eeg  
1549505435.258191 /muse/eeg ffffff  902.564087 851.391968 852.600708 827.216125 nan nan
1549505435.258238 /muse/eeg  
1549505435.258221 /muse/eeg ffffff  904.578735 851.794861 848.974365 838.498169 nan nan
1549505435.258269 /muse/eeg  
1549505435.258251 /muse/eeg ffffff  913.443237 851.391968 862.271057 836.886475 nan nan
1549505435.258302 /muse/eeg  
1549505435.258283 /muse/eeg ffffff  904.578735 840.512817 862.674011 825.604370 nan nan
1549505435.258333 /muse/eeg  
1549505435.258315 /muse/eeg ffffff  897.325989 844.139221 863.076904 822.380981 nan nan
1549505435.258363 /muse/eeg  
1549505435.258344 /muse/eeg ffffff  915.457886 852.600708 859.047607 835.274719 nan nan
1549505435.258394 /muse/eeg  
1549505435.258375 /muse/eeg ffffff  925.531128 858.241760 859.047607 848.571411 nan nan
1549505435.258456 /muse/eeg  
1549505435.258438 /muse/eeg ffffff  917.069580 859.450562 857.032959 859.047607 nan nan
1549505435.258489 /muse/eeg  
1549505435.258470 /muse/eeg ffffff  925.128235 855.018311 858.644714 859.047607 nan nan
1549505435.258521 /muse/eeg  
1549505435.258503 /muse/eeg ffffff  923.113525 855.018311 856.630066 853.809509 nan nan
1549505435.258558 /muse/eeg  
1549505435.258537 /muse/eeg ffffff  907.802185 851.391968 852.600708 855.018311 nan nan
1549505435.258590 /muse/eeg  
1549505435.258571 /muse/eeg ffffff  906.190491 851.391968 864.688660 842.527466 nan nan
1549505435.258622 /muse/eeg  
1549505435.258603 /muse/eeg ffffff  918.278381 855.421265 869.120850 839.304016 nan nan
1549505435.258653 /muse/eeg  
1549505435.258635 /muse/eeg ffffff  923.516479 853.003662 866.300354 853.406616 nan nan
1549505435.258685 /muse/eeg  
1549505435.258666 /muse/eeg ffffff  903.369934 849.780212 865.091553 854.212463 nan nan
1549505435.258714 /muse/eeg  
1549505435.258696 /muse/eeg ffffff  892.490845 851.391968 863.882812 851.391968 nan nan
1549505435.258746 /muse/eeg  
1549505435.258727 /muse/eeg ffffff  897.325989 848.571411 866.300354 857.838806 nan nan
1549505435.258775 /muse/eeg  
1549505435.258757 /muse/eeg ffffff  917.472534 844.139221 859.047607 848.168518 nan nan
1549505435.258809 /muse/eeg  
1549505435.258790 /muse/eeg ffffff  929.560425 845.750916 860.256409 853.003662 nan nan
1549505435.289207 /muse/eeg  
1549505435.289247 /muse/eeg  
1549505435.289253 /muse/eeg  
1549505435.289265 /muse/acc fff  0.276001 0.182495 0.937805
1549505435.289290 /muse/acc fff  0.271118 0.181763 0.938538
1549505435.289299 /muse/acc fff  0.273804 0.185547 0.944336
1549505435.289312 /muse/drlref ff  1697142.875000 1695531.125000
1549505435.289326 /muse/drlref ff  1697142.875000 1695531.125000
1549505435.289338 /muse/drlref ff  1697142.875000 1695531.125000
1549505435.289345 /muse/drlref ff  1697142.875000 1695531.125000
1549505435.289350 /muse/drlref ff  1697142.875000 1695531.125000
1549505435.289361 /muse/drlref ff  1697142.875000 1695531.125000
1549505435.320531 /muse/eeg  
1549505435.320488 /muse/eeg ffffff  910.622681 847.362610 860.256409 855.421265 nan nan
1549505435.321636 /muse/eeg  
1549505435.321849 /muse/eeg  
1549505435.321857 /muse/eeg  
1549505435.321862 /muse/eeg  
1549505435.321866 /muse/eeg  
1549505435.321871 /muse/eeg  
1549505435.321876 /muse/eeg  
1549505435.321880 /muse/eeg  
1549505435.321884 /muse/eeg  
1549505435.321888 /muse/eeg  
1549505435.321892 /muse/eeg  
1549505435.321897 /muse/eeg  
1549505435.321901 /muse/eeg  
1549505435.321905 /muse/eeg  
1549505435.321910 /muse/eeg  
1549505435.321914 /muse/eeg  
1549505435.321918 /muse/eeg  
1549505435.321922 /muse/eeg  
1549505435.322072 /muse/eeg  
1549505435.320565 /muse/eeg ffffff  886.849792 852.197815 861.868103 831.245422 nan nan
1549505435.322113 /muse/eeg  
1549505435.322086 /muse/eeg ffffff  891.684998 848.168518 871.135559 829.230774 nan nan
1549505435.322140 /muse/eeg  
1549505435.322125 /muse/eeg ffffff  884.029297 841.721619 870.732605 834.468872 nan nan
1549505435.322173 /muse/eeg  
1549505435.322157 /muse/eeg ffffff  889.267395 842.930420 866.300354 828.424927 nan nan
1549505435.322205 /muse/eeg  
1549505435.322189 /muse/eeg ffffff  894.505493 842.124512 853.809509 841.721619 nan nan
1549505435.322241 /muse/eeg  
1549505435.322221 /muse/eeg ffffff  891.282043 843.333313 851.794861 848.168518 nan nan
1549505435.322285 /muse/eeg  
1549505435.322264 /muse/eeg ffffff  900.549438 841.318665 865.091553 838.095215 nan nan
1549505435.322324 /muse/eeg  
1549505435.322303 /muse/eeg ffffff  898.131897 838.498169 867.509155 843.333313 nan nan
1549505435.322362 /muse/eeg  
1549505435.322340 /muse/eeg ffffff  873.150208 840.109863 865.897461 849.377319 nan nan
1549505435.322389 /muse/eeg  
1549505435.322374 /muse/eeg ffffff  861.868103 839.706970 871.538452 849.780212 nan nan
1549505435.322433 /muse/eeg  
1549505435.322408 /muse/eeg ffffff  860.659363 838.498169 882.014648 833.663025 nan nan
1549505435.322453 /muse/eeg  
1549505435.322460 /muse/eeg  
1549505435.322464 /muse/eeg  
1549505435.322471 /muse/acc fff  0.276794 0.184387 0.941895
1549505435.322487 /muse/acc fff  0.276855 0.182007 0.940491
1549505435.322496 /muse/acc fff  0.277100 0.180725 0.938416
1549505435.351700 /muse/eeg  
1549505435.351653 /muse/eeg ffffff  855.421265 832.051270 877.582397 832.454224 nan nan
1549505435.351751 /muse/eeg  
1549505435.351734 /muse/eeg ffffff  858.644714 828.424927 871.538452 833.663025 nan nan
1549505435.351777 /muse/eeg  
1549505435.351762 /muse/eeg ffffff  857.032959 827.216125 865.494507 825.201477 nan nan
1549505435.351803 /muse/eeg  
1549505435.351788 /muse/eeg ffffff  850.183167 831.245422 856.227112 845.347961 nan nan
1549505435.351827 /muse/eeg  
1549505435.351812 /muse/eeg ffffff  850.586060 838.498169 870.329651 849.780212 nan nan
1549505435.351854 /muse/eeg  
1549505435.351838 /muse/eeg ffffff  855.018311 834.468872 877.179504 838.901123 nan nan
1549505435.351880 /muse/eeg  
1549505435.351865 /muse/eeg ffffff  853.003662 834.065918 876.776550 833.260071 nan nan
1549505435.351905 /muse/eeg  
1549505435.351890 /muse/eeg ffffff  847.362610 834.468872 867.106201 823.186829 nan nan
1549505435.351931 /muse/eeg  
1549505435.351915 /muse/eeg ffffff  835.274719 835.677673 863.076904 819.963379 nan nan
1549505435.351956 /muse/eeg  
1549505435.351941 /muse/eeg ffffff  848.974365 838.498169 880.402954 841.318665 nan nan
1549505435.351983 /muse/eeg  
1549505435.351967 /muse/eeg ffffff  850.586060 835.274719 879.194153 854.615356 nan nan
1549505435.352009 /muse/eeg  
1549505435.351993 /muse/eeg ffffff  856.227112 833.260071 874.358948 848.974365 nan nan
1549505435.352024 /muse/eeg  
1549505435.352028 /muse/eeg  
1549505435.352031 /muse/eeg  
1549505435.352039 /muse/acc fff  0.279785 0.180237 0.942993
1549505435.352049 /muse/acc fff  0.269775 0.178833 0.931091
1549505435.352055 /muse/acc fff  0.271362 0.178772 0.931885
1549505435.352102 /muse/eeg  
1549505435.352084 /muse/eeg ffffff  860.256409 830.036621 869.523804 840.109863 nan nan
1549505435.352133 /muse/eeg  
1549505435.352113 /muse/eeg ffffff  848.974365 829.633728 871.135559 831.648376 nan nan
1549505435.352159 /muse/eeg  
1549505435.352144 /muse/eeg ffffff  850.183167 831.648376 883.223450 843.333313 nan nan
1549505435.353216 /muse/eeg  
1549505435.353440 /muse/eeg  
1549505435.353450 /muse/eeg  
1549505435.353456 /muse/eeg  
1549505435.353461 /muse/eeg  
1549505435.353465 /muse/eeg  
1549505435.353470 /muse/eeg  
1549505435.353474 /muse/eeg  
1549505435.353478 /muse/eeg  
1549505435.353482 /muse/eeg  
1549505435.353486 /muse/eeg  
1549505435.353490 /muse/eeg  
1549505435.353495 /muse/eeg  
1549505435.353499 /muse/eeg  
1549505435.353503 /muse/eeg  
1549505435.353507 /muse/eeg  
1549505435.353511 /muse/eeg  
1549505435.353515 /muse/eeg  
1549505435.353635 /muse/eeg  
1549505435.352168 /muse/eeg ffffff  845.347961 834.065918 884.029297 846.959717 nan nan
1549505435.353682 /muse/eeg  
1549505435.353649 /muse/eeg ffffff  845.750916 836.886475 875.970703 834.065918 nan nan
1549505435.353716 /muse/eeg  
1549505435.353695 /muse/eeg ffffff  838.901123 832.454224 856.227112 845.347961 nan nan
1549505435.353747 /muse/eeg  
1549505435.353729 /muse/eeg ffffff  846.556763 832.857117 857.838806 852.197815 nan nan
1549505435.353785 /muse/eeg  
1549505435.353765 /muse/eeg ffffff  851.794861 837.289368 868.717957 844.139221 nan nan
1549505435.353822 /muse/eeg  
1549505435.353802 /muse/eeg ffffff  857.032959 832.454224 864.285706 856.630066 nan nan
1549505435.353862 /muse/eeg  
1549505435.353843 /muse/eeg ffffff  872.344299 831.648376 869.120850 846.556763 nan nan
1549505435.353895 /muse/eeg  
1549505435.353876 /muse/eeg ffffff  860.659363 827.619019 861.062256 840.109863 nan nan
1549505435.353930 /muse/eeg  
1549505435.353906 /muse/eeg ffffff  856.227112 822.783875 860.256409 836.483521 nan nan
1549505435.414241 /muse/eeg  
1549505435.414269 /muse/eeg  
1549505435.414273 /muse/eeg  
1549505435.414283 /muse/acc fff  0.275269 0.181824 0.933289
1549505435.414297 /muse/acc fff  0.277893 0.182861 0.928772
1549505435.414307 /muse/acc fff  0.280762 0.186340 0.934509
1549505435.414370 /muse/eeg  
1549505435.414342 /muse/eeg ffffff  846.153870 820.366272 869.120850 853.406616 nan nan
1549505435.414400 /muse/eeg  
1549505435.414387 /muse/eeg ffffff  836.080566 815.934082 867.912109 850.989014 nan nan
1549505435.414425 /muse/eeg  
1549505435.414411 /muse/eeg ffffff  836.080566 824.395630 867.106201 863.479858 nan nan
1549505435.414451 /muse/eeg  
1549505435.414436 /muse/eeg ffffff  841.318665 830.842468 860.256409 870.329651 nan nan
1549505435.414475 /muse/eeg  
1549505435.414462 /muse/eeg ffffff  850.989014 828.424927 863.076904 838.498169 nan nan
1549505435.414496 /muse/eeg  
1549505435.414484 /muse/eeg ffffff  867.106201 825.201477 863.882812 845.750916 nan nan
1549505435.414534 /muse/eeg  
1549505435.414520 /muse/eeg ffffff  858.241760 826.813171 863.479858 850.586060 nan nan
1549505435.414569 /muse/eeg  
1549505435.414554 /muse/eeg ffffff  846.153870 830.439575 853.809509 852.600708 nan nan
1549505435.414608 /muse/eeg  
1549505435.414591 /muse/eeg ffffff  863.076904 834.871765 844.945068 833.260071 nan nan
1549505435.414641 /muse/eeg  
1549505435.414625 /muse/eeg ffffff  861.465210 837.289368 852.600708 824.798523 nan nan
1549505435.414677 /muse/eeg  
1549505435.414661 /muse/eeg ffffff  862.674011 836.080566 850.183167 825.604370 nan nan
1549505435.414710 /muse/eeg  
1549505435.414696 /muse/eeg ffffff  882.820496 835.677673 853.809509 835.274719 nan nan
1549505435.445382 /muse/drlref ff  1697142.875000 1695531.125000
1549505435.445414 /muse/drlref ff  1697142.875000 1695531.125000
1549505435.445423 /muse/drlref ff  1697142.875000 1695531.125000
1549505435.445429 /muse/drlref ff  1697142.875000 1695531.125000
1549505435.445433 /muse/drlref ff  1697142.875000 1695531.125000
1549505435.445441 /muse/drlref ff  1697142.875000 1695531.125000
1549505435.445452 /muse/eeg  
1549505435.445461 /muse/eeg  
1549505435.445467 /muse/eeg  
1549505435.445475 /muse/acc fff  0.277283 0.185364 0.937500
1549505435.445492 /muse/acc fff  0.267151 0.184753 0.934326
1549505435.445506 /muse/acc fff  0.267029 0.186523 0.929993
1549505435.508015 /muse/eeg  
1549505435.507971 /muse/eeg ffffff  873.553101 832.454224 848.168518 831.648376 nan nan
1549505435.508062 /muse/eeg  
1549505435.508045 /muse/eeg ffffff  857.838806 834.468872 845.750916 826.007324 nan nan
1549505435.508088 /muse/eeg  
1549505435.508072 /muse/eeg ffffff  853.003662 832.857117 854.212463 846.153870 nan nan
1549505435.508114 /muse/eeg  
1549505435.508099 /muse/eeg ffffff  857.838806 838.498169 848.571411 814.725281 nan nan
1549505435.508139 /muse/eeg  
1549505435.508124 /muse/eeg ffffff  865.494507 846.153870 846.959717 810.293030 nan nan
1549505435.509216 /muse/eeg  
1549505435.509448 /muse/eeg  
1549505435.509457 /muse/eeg  
1549505435.509463 /muse/eeg  
1549505435.509467 /muse/eeg  
1549505435.509472 /muse/eeg  
1549505435.509476 /muse/eeg  
1549505435.509481 /muse/eeg  
1549505435.509485 /muse/eeg  
1549505435.509489 /muse/eeg  
1549505435.509493 /muse/eeg  
1549505435.509497 /muse/eeg  
1549505435.509502 /muse/eeg  
1549505435.509506 /muse/eeg  
1549505435.509510 /muse/eeg  
1549505435.509516 /muse/eeg  
1549505435.509519 /muse/eeg  
1549505435.509524 /muse/eeg  
1549505435.509659 /muse/eeg  
1549505435.508152 /muse/eeg ffffff  863.882812 839.304016 842.527466 832.051270 nan nan
1549505435.509702 /muse/eeg  
1549505435.509673 /muse/eeg ffffff  853.406616 832.454224 839.304016 805.860779 nan nan
1549505435.509729 /muse/eeg  
1549505435.509714 /muse/eeg ffffff  858.644714 834.065918 850.989014 817.948730 nan nan
1549505435.509758 /muse/eeg  
1549505435.509741 /muse/eeg ffffff  846.959717 829.230774 857.838806 841.721619 nan nan
1549505435.509784 /muse/eeg  
1549505435.509769 /muse/eeg ffffff  842.124512 832.454224 849.780212 830.439575 nan nan
1549505435.509810 /muse/eeg  
1549505435.509795 /muse/eeg ffffff  858.241760 837.692322 842.930420 825.201477 nan nan
1549505435.509837 /muse/eeg  
1549505435.509821 /muse/eeg ffffff  863.882812 834.468872 850.989014 839.706970 nan nan
1549505435.509898 /muse/eeg  
1549505435.509881 /muse/eeg ffffff  861.062256 840.512817 848.974365 836.886475 nan nan
1549505435.509924 /muse/eeg  
1549505435.509909 /muse/eeg ffffff  853.406616 843.736267 842.124512 810.695984 nan nan
1549505435.509949 /muse/eeg  
1549505435.509933 /muse/eeg ffffff  865.494507 836.080566 829.230774 826.813171 nan nan
1549505435.509974 /muse/eeg  
1549505435.509958 /muse/eeg ffffff  885.641052 832.454224 823.992676 852.600708 nan nan
1549505435.509998 /muse/eeg  
1549505435.509983 /muse/eeg ffffff  906.593384 836.483521 837.692322 833.663025 nan nan
1549505435.510025 /muse/eeg  
1549505435.510010 /muse/eeg ffffff  894.102539 848.974365 831.648376 831.245422 nan nan
1549505435.510052 /muse/eeg  
1549505435.510037 /muse/eeg ffffff  851.794861 846.959717 832.857117 840.915771 nan nan
1549505435.510077 /muse/eeg  
1549505435.510061 /muse/eeg ffffff  847.362610 832.454224 846.153870 837.289368 nan nan
1549505435.510105 /muse/eeg  
1549505435.510089 /muse/eeg ffffff  857.838806 834.871765 842.930420 836.080566 nan nan
1549505435.510129 /muse/eeg  
1549505435.510113 /muse/eeg ffffff  860.659363 838.095215 850.989014 819.963379 nan nan
1549505435.510156 /muse/eeg  
1549505435.510140 /muse/eeg ffffff  860.256409 838.901123 852.600708 806.263733 nan nan
1549505435.510182 /muse/eeg  
1549505435.510167 /muse/eeg ffffff  871.135559 846.959717 849.780212 817.545776 nan nan
1549505435.539125 /muse/eeg  
1549505435.539156 /muse/eeg  
1549505435.539161 /muse/eeg  
1549505435.539171 /muse/acc fff  0.263428 0.183899 0.937256
1549505435.539185 /muse/acc fff  0.261536 0.186890 0.936707
1549505435.539190 /muse/acc fff  0.267212 0.186646 0.940186
1549505435.570514 /muse/eeg  
1549505435.570470 /muse/eeg ffffff  889.267395 844.139221 845.347961 851.794861 nan nan
1549505435.570565 /muse/eeg  
1549505435.570547 /muse/eeg ffffff  884.835144 839.304016 842.124512 861.465210 nan nan
1549505435.570592 /muse/eeg  
1549505435.570577 /muse/eeg ffffff  864.688660 840.109863 845.347961 828.021973 nan nan
1549505435.570616 /muse/eeg  
1549505435.570601 /muse/eeg ffffff  862.674011 843.736267 851.794861 830.036621 nan nan
1549505435.570642 /muse/eeg  
1549505435.570627 /muse/eeg ffffff  845.347961 837.289368 859.450562 836.483521 nan nan
1549505435.570669 /muse/eeg  
1549505435.570653 /muse/eeg ffffff  869.926758 838.498169 852.197815 840.512817 nan nan
1549505435.570694 /muse/eeg  
1549505435.570679 /muse/eeg ffffff  885.641052 855.018311 848.974365 836.886475 nan nan
1549505435.571773 /muse/eeg  
1549505435.571990 /muse/eeg  
1549505435.571999 /muse/eeg  
1549505435.572004 /muse/eeg  
1549505435.572009 /muse/eeg  
1549505435.572014 /muse/eeg  
1549505435.572019 /muse/eeg  
1549505435.572026 /muse/eeg  
1549505435.572030 /muse/eeg  
1549505435.572035 /muse/eeg  
1549505435.572040 /muse/eeg  
1549505435.572046 /muse/eeg  
1549505435.572051 /muse/eeg  
1549505435.572055 /muse/eeg  
1549505435.572061 /muse/eeg  
1549505435.572065 /muse/eeg  
1549505435.572070 /muse/eeg  
1549505435.572075 /muse/eeg  
1549505435.572195 /muse/eeg  
1549505435.570704 /muse/eeg ffffff  876.373596 863.479858 859.047607 834.065918 nan nan
1549505435.572236 /muse/eeg  
1549505435.572209 /muse/eeg ffffff  890.476196 865.494507 869.926758 862.271057 nan nan
1549505435.572264 /muse/eeg  
1549505435.572248 /muse/eeg ffffff  888.058594 861.465210 872.747253 885.238098 nan nan
1549505435.572292 /muse/eeg  
1549505435.572277 /muse/eeg ffffff  882.820496 853.809509 859.047607 877.179504 nan nan
1549505435.572319 /muse/eeg  
1549505435.572303 /muse/eeg ffffff  923.113525 857.838806 862.674011 889.670349 nan nan
1549505435.572341 /muse/eeg  
1549505435.572348 /muse/eeg  
1549505435.572351 /muse/eeg  
1549505435.572359 /muse/acc fff  0.276428 0.188232 0.944885
1549505435.572368 /muse/acc fff  0.277405 0.189453 0.946533
1549505435.572374 /muse/acc fff  0.281250 0.188782 0.946777
1549505435.601767 /muse/eeg  
1549505435.601731 /muse/eeg ffffff  911.428589 872.747253 873.150208 888.058594 nan nan
1549505435.601816 /muse/eeg  
1549505435.601797 /muse/eeg ffffff  867.912109 871.135559 874.761902 873.956055 nan nan
1549505435.601849 /muse/eeg  
1549505435.601830 /muse/eeg ffffff  870.329651 857.838806 874.358948 875.970703 nan nan
1549505435.601881 /muse/eeg  
1549505435.601862 /muse/eeg ffffff  886.849792 855.824158 868.315002 871.941406 nan nan
1549505435.601909 /muse/eeg  
1549505435.601894 /muse/eeg ffffff  888.864441 857.435913 871.538452 870.732605 nan nan
1549505435.601936 /muse/eeg  
1549505435.601920 /muse/eeg ffffff  873.150208 855.824158 870.732605 878.791199 nan nan
1549505435.601968 /muse/eeg  
1549505435.601949 /muse/eeg ffffff  879.597046 859.047607 875.164856 867.509155 nan nan
1549505435.601997 /muse/eeg  
1549505435.601980 /muse/eeg ffffff  885.238098 861.868103 863.882812 844.139221 nan nan
1549505435.602025 /muse/eeg  
1549505435.602008 /muse/eeg ffffff  911.831482 860.659363 854.615356 856.227112 nan nan
1549505435.602053 /muse/eeg  
1549505435.602036 /muse/eeg ffffff  905.384644 854.615356 876.373596 874.358948 nan nan
1549505435.602081 /muse/eeg  
1549505435.602065 /muse/eeg ffffff  866.703308 852.197815 875.164856 865.897461 nan nan
1549505435.602110 /muse/eeg  
1549505435.602093 /muse/eeg ffffff  866.703308 853.809509 869.120850 864.285706 nan nan
1549505435.632887 /muse/eeg  
1549505435.632922 /muse/eeg  
1549505435.632930 /muse/eeg  
1549505435.632945 /muse/acc fff  0.295593 0.186035 0.953308
1549505435.632962 /muse/acc fff  0.304565 0.183960 0.946655
1549505435.632971 /muse/acc fff  0.314148 0.185852 0.944336
1549505435.664253 /muse/eeg  
1549505435.664211 /muse/eeg ffffff  875.164856 852.197815 858.644714 871.941406 nan nan
1549505435.664319 /muse/eeg  
1549505435.664287 /muse/eeg ffffff  877.179504 856.227112 856.630066 865.494507 nan nan
1549505435.664371 /muse/eeg  
1549505435.664343 /muse/eeg ffffff  868.717957 858.644714 869.120850 864.285706 nan nan
1549505435.664415 /muse/eeg  
1549505435.664394 /muse/eeg ffffff  888.461548 850.183167 868.717957 859.853455 nan nan
1549505435.664453 /muse/eeg  
1549505435.664433 /muse/eeg ffffff  887.252747 849.377319 865.897461 850.989014 nan nan
1549505435.664491 /muse/eeg  
1549505435.664471 /muse/eeg ffffff  863.479858 860.256409 859.047607 855.824158 nan nan
1549505435.664530 /muse/eeg  
1549505435.664510 /muse/eeg ffffff  878.791199 859.853455 869.926758 865.897461 nan nan
1549505435.664569 /muse/eeg  
1549505435.664549 /muse/eeg ffffff  858.644714 855.824158 873.150208 850.183167 nan nan
1549505435.664608 /muse/eeg  
1549505435.664587 /muse/eeg ffffff  830.439575 850.989014 864.688660 840.512817 nan nan
1549505435.665869 /muse/eeg  
1549505435.666110 /muse/eeg  
1549505435.666118 /muse/eeg  
1549505435.666123 /muse/eeg  
1549505435.666128 /muse/eeg  
1549505435.666133 /muse/eeg  
1549505435.666138 /muse/eeg  
1549505435.666144 /muse/eeg  
1549505435.666148 /muse/eeg  
1549505435.666153 /muse/eeg  
1549505435.666158 /muse/eeg  
1549505435.666163 /muse/eeg  
1549505435.666168 /muse/eeg  
1549505435.666173 /muse/eeg  
1549505435.666178 /muse/eeg  
1549505435.666183 /muse/eeg  
1549505435.666188 /muse/eeg  
1549505435.666192 /muse/eeg  
1549505435.666323 /muse/eeg  
1549505435.664627 /muse/eeg ffffff  845.347961 852.600708 864.285706 855.421265 nan nan
1549505435.666367 /muse/eeg  
1549505435.666338 /muse/eeg ffffff  834.871765 856.630066 857.032959 848.974365 nan nan
1549505435.666396 /muse/eeg  
1549505435.666379 /muse/eeg ffffff  834.871765 852.197815 857.032959 835.274719 nan nan
1549505435.666422 /muse/drlref ff  1697142.875000 1695531.125000
1549505435.666432 /muse/drlref ff  1697142.875000 1695531.125000
1549505435.666441 /muse/drlref ff  1697142.875000 1695531.125000
1549505435.666446 /muse/drlref ff  1697142.875000 1695531.125000
1549505435.666452 /muse/drlref ff  1697142.875000 1695531.125000
1549505435.666459 /muse/drlref ff  1697142.875000 1695531.125000
1549505435.695449 /muse/eeg  
1549505435.695473 /muse/eeg  
1549505435.695478 /muse/eeg  
1549505435.695488 /muse/acc fff  0.301025 0.185059 0.939880
1549505435.695508 /muse/acc fff  0.287476 0.191040 0.941406
1549505435.695544 /muse/acc fff  0.284790 0.205078 0.934204
1549505435.695636 /muse/eeg  
1549505435.695605 /muse/eeg ffffff  854.212463 850.989014 865.897461 839.304016 nan nan
1549505435.695694 /muse/eeg  
1549505435.695663 /muse/eeg ffffff  856.630066 853.809509 873.150208 844.945068 nan nan
1549505435.695736 /muse/eeg  
1549505435.695716 /muse/eeg ffffff  835.274719 847.765564 864.688660 850.989014 nan nan
1549505435.695769 /muse/eeg  
1549505435.695749 /muse/eeg ffffff  836.886475 847.765564 863.882812 863.076904 nan nan
1549505435.695801 /muse/eeg  
1549505435.695781 /muse/eeg ffffff  845.750916 853.809509 873.150208 855.421265 nan nan
1549505435.695832 /muse/eeg  
1549505435.695813 /muse/eeg ffffff  842.124512 851.794861 859.047607 848.571411 nan nan
1549505435.695867 /muse/eeg  
1549505435.695848 /muse/eeg ffffff  847.362610 855.824158 868.315002 868.717957 nan nan
1549505435.695903 /muse/eeg  
1549505435.695884 /muse/eeg ffffff  836.886475 852.197815 881.611694 877.179504 nan nan
1549505435.695939 /muse/eeg  
1549505435.695920 /muse/eeg ffffff  866.300354 848.168518 881.208801 876.373596 nan nan
1549505435.695975 /muse/eeg  
1549505435.695955 /muse/eeg ffffff  881.208801 851.794861 893.699646 852.197815 nan nan
1549505435.696011 /muse/eeg  
1549505435.695992 /muse/eeg ffffff  848.571411 853.406616 894.908447 836.080566 nan nan
1549505435.696047 /muse/eeg  
1549505435.696027 /muse/eeg ffffff  840.512817 856.630066 896.520142 838.901123 nan nan
1549505435.726728 /muse/eeg  
1549505435.726757 /muse/eeg  
1549505435.726761 /muse/eeg  
1549505435.726771 /muse/acc fff  0.277832 0.202454 0.941040
1549505435.726784 /muse/acc fff  0.272339 0.200562 0.951111
1549505435.726790 /muse/acc fff  0.267456 0.196655 0.946289
1549505435.757994 /muse/eeg  
1549505435.757958 /muse/eeg ffffff  838.901123 850.586060 893.296692 848.168518 nan nan
1549505435.758050 /muse/eeg  
1549505435.758026 /muse/eeg ffffff  838.498169 843.736267 891.684998 841.721619 nan nan
1549505435.758092 /muse/eeg  
1549505435.758071 /muse/eeg ffffff  841.721619 846.556763 898.937744 837.692322 nan nan
1549505435.758130 /muse/eeg  
1549505435.758109 /muse/eeg ffffff  838.498169 846.959717 904.175842 854.212463 nan nan
1549505435.758168 /muse/eeg  
1549505435.758148 /muse/eeg ffffff  846.153870 842.527466 906.593384 856.630066 nan nan
1549505435.758210 /muse/eeg  
1549505435.758186 /muse/eeg ffffff  850.989014 837.692322 895.714294 854.615356 nan nan
1549505435.758243 /muse/eeg  
1549505435.758224 /muse/eeg ffffff  848.571411 840.915771 904.175842 862.674011 nan nan
1549505435.758275 /muse/eeg  
1549505435.758256 /muse/eeg ffffff  853.003662 842.930420 918.681335 868.315002 nan nan
1549505435.758305 /muse/eeg  
1549505435.758289 /muse/eeg ffffff  859.853455 842.930420 921.904785 867.106201 nan nan
1549505435.758339 /muse/eeg  
1549505435.758320 /muse/eeg ffffff  874.358948 844.945068 923.516479 869.523804 nan nan
1549505435.758368 /muse/eeg  
1549505435.758352 /muse/eeg ffffff  863.882812 844.945068 912.637390 855.824158 nan nan
1549505435.759603 /muse/eeg  
1549505435.759853 /muse/eeg  
1549505435.759860 /muse/eeg  
1549505435.759864 /muse/eeg  
1549505435.759868 /muse/eeg  
1549505435.759876 /muse/eeg  
1549505435.759884 /muse/eeg  
1549505435.759897 /muse/eeg  
1549505435.759902 /muse/eeg  
1549505435.759908 /muse/eeg  
1549505435.759913 /muse/eeg  
1549505435.759917 /muse/eeg  
1549505435.759921 /muse/eeg  
1549505435.759924 /muse/eeg  
1549505435.759929 /muse/eeg  
1549505435.759933 /muse/eeg  
1549505435.759937 /muse/eeg  
1549505435.759941 /muse/eeg  
1549505435.760075 /muse/eeg  
1549505435.758380 /muse/eeg ffffff  844.542114 848.571411 913.040283 856.227112 nan nan
1549505435.782206 /muse/eeg  
1549505435.782168 /muse/eeg ffffff  844.139221 848.974365 923.516479 884.029297 nan nan
1549505435.782255 /muse/eeg  
1549505435.782237 /muse/eeg ffffff  853.003662 848.168518 923.919434 869.926758 nan nan
1549505435.782284 /muse/eeg  
1549505435.782268 /muse/eeg ffffff  863.882812 848.571411 920.695984 857.435913 nan nan
1549505435.782314 /muse/eeg  
1549505435.782296 /muse/eeg ffffff  872.344299 843.333313 916.263733 850.989014 nan nan
1549505435.782343 /muse/eeg  
1549505435.782325 /muse/eeg ffffff  869.120850 838.901123 922.710632 859.450562 nan nan
1549505435.782371 /muse/eeg  
1549505435.782355 /muse/eeg ffffff  852.197815 840.512817 921.904785 859.853455 nan nan
1549505435.782399 /muse/eeg  
1549505435.782383 /muse/eeg ffffff  864.688660 844.139221 921.501831 857.435913 nan nan
1549505435.782429 /muse/eeg  
1549505435.782411 /muse/eeg ffffff  867.912109 844.945068 920.293030 861.062256 nan nan
1549505435.782456 /muse/eeg  
1549505435.782440 /muse/eeg ffffff  845.750916 843.333313 915.054932 855.421265 nan nan
1549505435.782484 /muse/eeg  
1549505435.782468 /muse/eeg ffffff  866.300354 847.362610 923.919434 859.450562 nan nan
1549505435.782511 /muse/eeg  
1549505435.782497 /muse/eeg ffffff  866.300354 848.974365 921.098877 860.659363 nan nan
1549505435.782550 /muse/eeg  
1549505435.782527 /muse/eeg ffffff  852.197815 851.794861 919.487183 866.300354 nan nan
1549505435.782568 /muse/eeg  
1549505435.782572 /muse/eeg  
1549505435.782575 /muse/eeg  
1549505435.806137 /muse/acc fff  0.267822 0.197632 0.929077
1549505435.806182 /muse/acc fff  0.269104 0.195251 0.937439
1549505435.806191 /muse/acc fff  0.266968 0.192200 0.931152
1549505435.868945 /muse/eeg  
1549505435.868902 /muse/eeg ffffff  865.494507 850.183167 911.428589 868.315002 nan nan
1549505435.868994 /muse/eeg  
1549505435.868975 /muse/eeg ffffff  876.373596 850.586060 910.219788 876.373596 nan nan
1549505435.869036 /muse/eeg  
1549505435.869016 /muse/eeg ffffff  894.102539 855.824158 919.084229 860.659363 nan nan
1549505435.869074 /muse/eeg  
1549505435.869053 /muse/eeg ffffff  879.597046 853.003662 919.084229 855.824158 nan nan
1549505435.869112 /muse/eeg  
1549505435.869091 /muse/eeg ffffff  871.135559 845.750916 917.069580 866.703308 nan nan
1549505435.869151 /muse/eeg  
1549505435.869130 /muse/eeg ffffff  876.373596 842.527466 904.981689 871.135559 nan nan
1549505435.869183 /muse/eeg  
1549505435.869163 /muse/eeg ffffff  863.882812 846.556763 912.234436 867.912109 nan nan
1549505435.869217 /muse/eeg  
1549505435.869196 /muse/eeg ffffff  867.106201 850.183167 923.919434 860.256409 nan nan
1549505435.869251 /muse/eeg  
1549505435.869231 /muse/eeg ffffff  877.179504 846.556763 917.875488 860.659363 nan nan
1549505435.869285 /muse/eeg  
1549505435.869263 /muse/eeg ffffff  874.358948 846.959717 906.593384 853.809509 nan nan
1549505435.869319 /muse/eeg  
1549505435.869298 /muse/eeg ffffff  871.538452 853.003662 895.714294 844.945068 nan nan
1549505435.869351 /muse/eeg  
1549505435.869330 /muse/eeg ffffff  867.912109 850.586060 900.549438 858.644714 nan nan
1549505435.869371 /muse/eeg  
1549505435.869375 /muse/eeg  
1549505435.869379 /muse/eeg  
1549505435.869386 /muse/acc fff  0.267395 0.188843 0.936035
1549505435.869401 /muse/acc fff  0.272095 0.184387 0.939514
1549505435.869408 /muse/acc fff  0.273254 0.177551 0.936462
1549505435.900087 /muse/drlref ff  1697142.875000 1695531.125000
1549505435.900128 /muse/drlref ff  1697142.875000 1695531.125000
1549505435.900145 /muse/drlref ff  1697142.875000 1695531.125000
1549505435.900159 /muse/drlref ff  1697142.875000 1695531.125000
1549505435.900167 /muse/drlref ff  1697142.875000 1695531.125000
1549505435.900185 /muse/drlref ff  1697142.875000 1695531.125000
1549505435.900249 /muse/eeg  
1549505435.900222 /muse/eeg ffffff  865.091553 849.780212 903.369934 860.659363 nan nan
1549505435.901347 /muse/eeg  
1549505435.901560 /muse/eeg  
1549505435.901567 /muse/eeg  
1549505435.901570 /muse/eeg  
1549505435.901578 /muse/eeg  
1549505435.901586 /muse/eeg  
1549505435.901598 /muse/eeg  
1549505435.901606 /muse/eeg  
1549505435.901616 /muse/eeg  
1549505435.901621 /muse/eeg  
1549505435.901626 /muse/eeg  
1549505435.901631 /muse/eeg  
1549505435.901639 /muse/eeg  
1549505435.901644 /muse/eeg  
1549505435.901649 /muse/eeg  
1549505435.901653 /muse/eeg  
1549505435.901658 /muse/eeg  
1549505435.901665 /muse/eeg  
1549505435.901796 /muse/eeg  
1549505435.900262 /muse/eeg ffffff  862.674011 854.212463 904.175842 851.391968 nan nan
1549505435.901842 /muse/eeg  
1549505435.901810 /muse/eeg ffffff  865.091553 850.989014 897.728943 855.018311 nan nan
1549505435.901881 /muse/eeg  
1549505435.901861 /muse/eeg ffffff  869.120850 848.571411 891.282043 846.153870 nan nan
1549505435.901915 /muse/eeg  
1549505435.901895 /muse/eeg ffffff  869.120850 849.780212 900.952393 861.868103 nan nan
1549505435.901945 /muse/eeg  
1549505435.901927 /muse/eeg ffffff  890.073242 844.139221 904.175842 881.611694 nan nan
1549505435.901982 /muse/eeg  
1549505435.901962 /muse/eeg ffffff  879.194153 843.333313 907.802185 864.285706 nan nan
1549505435.902018 /muse/eeg  
1549505435.901998 /muse/eeg ffffff  864.688660 849.377319 898.937744 860.659363 nan nan
1549505435.902048 /muse/eeg  
1549505435.902030 /muse/eeg ffffff  845.347961 848.571411 889.267395 861.868103 nan nan
1549505435.902077 /muse/eeg  
1549505435.902061 /muse/eeg ffffff  861.465210 848.571411 900.549438 847.362610 nan nan
1549505435.902113 /muse/eeg  
1549505435.902095 /muse/eeg ffffff  877.985352 848.974365 900.549438 848.974365 nan nan
1549505435.902147 /muse/eeg  
1549505435.902128 /muse/eeg ffffff  840.109863 843.333313 902.564087 859.450562 nan nan
1549505435.962577 /muse/eeg  
1549505435.962613 /muse/eeg  
1549505435.962619 /muse/eeg  
1549505435.962630 /muse/acc fff  0.274658 0.172668 0.937134
1549505435.962651 /muse/acc fff  0.274658 0.169495 0.931824
1549505435.962660 /muse/acc fff  0.273438 0.166626 0.927490
1549505435.993896 /muse/eeg  
1549505435.993852 /muse/eeg ffffff  859.853455 844.945068 899.743591 859.047607 nan nan
1549505435.993947 /muse/eeg  
1549505435.993927 /muse/eeg ffffff  882.014648 849.780212 897.325989 858.241760 nan nan
1549505435.993980 /muse/eeg  
1549505435.993960 /muse/eeg ffffff  868.717957 853.809509 903.772888 847.765564 nan nan
1549505435.994012 /muse/eeg  
1549505435.993993 /muse/eeg ffffff  858.241760 851.794861 901.758240 860.659363 nan nan
1549505435.994044 /muse/eeg  
1549505435.994025 /muse/eeg ffffff  864.285706 845.750916 896.520142 870.329651 nan nan
1549505435.994075 /muse/eeg  
1549505435.994056 /muse/eeg ffffff  856.630066 843.333313 880.402954 868.315002 nan nan
1549505435.994103 /muse/eeg  
1549505435.994088 /muse/eeg ffffff  871.538452 845.347961 881.611694 877.985352 nan nan
1549505435.994131 /muse/eeg  
1549505435.994115 /muse/eeg ffffff  883.626404 843.736267 900.146545 873.956055 nan nan
1549505435.994158 /muse/eeg  
1549505435.994141 /muse/eeg ffffff  860.256409 840.512817 900.952393 857.032959 nan nan
1549505435.994185 /muse/eeg  
1549505435.994169 /muse/eeg ffffff  859.450562 844.139221 891.684998 849.780212 nan nan
1549505435.994212 /muse/eeg  
1549505435.994197 /muse/eeg ffffff  859.853455 848.168518 883.626404 859.853455 nan nan
1549505435.994239 /muse/eeg  
1549505435.994224 /muse/eeg ffffff  861.465210 847.765564 884.029297 870.732605 nan nan
1549505435.994256 /muse/eeg  
1549505435.994261 /muse/eeg  
1549505435.994266 /muse/eeg  
1549505435.994274 /muse/acc fff  0.281006 0.166687 0.932434
1549505435.994285 /muse/acc fff  0.274963 0.165771 0.922974
1549505435.994292 /muse/acc fff  0.280212 0.167725 0.927307
1549505435.994341 /muse/eeg  
1549505435.994323 /muse/eeg ffffff  872.747253 846.153870 891.282043 875.567749 nan nan
1549505435.994369 /muse/eeg  
1549505435.994352 /muse/eeg ffffff  867.509155 848.571411 896.520142 874.761902 nan nan
1549505435.994397 /muse/eeg  
1549505435.994380 /muse/eeg ffffff  859.450562 848.168518 896.520142 871.941406 nan nan
1549505435.995654 /muse/eeg  
1549505435.995873 /muse/eeg  
1549505435.995885 /muse/eeg  
1549505435.995894 /muse/eeg  
1549505435.995903 /muse/eeg  
1549505435.995908 /muse/eeg  
1549505435.995912 /muse/eeg  
1549505435.995916 /muse/eeg  
1549505435.995920 /muse/eeg  
1549505435.995926 /muse/eeg  
1549505435.995930 /muse/eeg  
1549505435.995935 /muse/eeg  
1549505435.995939 /muse/eeg  
1549505435.995943 /muse/eeg  
1549505435.995947 /muse/eeg  
1549505435.995952 /muse/eeg  
1549505435.995956 /muse/eeg  
1549505435.995960 /muse/eeg  
1549505435.996092 /muse/eeg  
1549505435.994408 /muse/eeg ffffff  868.717957 839.304016 893.699646 866.300354 nan nan
1549505435.996134 /muse/eeg  
1549505435.996107 /muse/eeg ffffff  868.717957 840.512817 900.549438 847.362610 nan nan
1549505435.996163 /muse/eeg  
1549505435.996146 /muse/eeg ffffff  868.315002 842.527466 900.952393 842.930420 nan nan
1549505435.996189 /muse/eeg  
1549505435.996174 /muse/eeg ffffff  874.761902 841.721619 895.714294 847.362610 nan nan
1549505435.996216 /muse/eeg  
1549505435.996201 /muse/eeg ffffff  869.120850 849.377319 895.311340 855.421265 nan nan
1549505435.996243 /muse/eeg  
1549505435.996228 /muse/eeg ffffff  881.611694 850.989014 899.340637 858.241760 nan nan
1549505435.996270 /muse/eeg  
1549505435.996255 /muse/eeg ffffff  861.868103 849.377319 904.578735 853.406616 nan nan
1549505435.996297 /muse/eeg  
1549505435.996281 /muse/eeg ffffff  855.018311 855.018311 897.325989 850.586060 nan nan
1549505435.996322 /muse/eeg  
1549505435.996306 /muse/eeg ffffff  875.970703 859.853455 904.578735 843.736267 nan nan
1549505436.025075 /muse/eeg  
1549505436.025103 /muse/eeg  
1549505436.025108 /muse/eeg  
1549505436.025122 /muse/acc fff  0.287354 0.174194 0.923096
1549505436.025137 /muse/acc fff  0.283325 0.181030 0.925171
1549505436.025148 /muse/acc fff  0.278442 0.185791 0.937927
1549505436.056379 /muse/eeg  
1549505436.056339 /muse/eeg ffffff  872.344299 857.838806 899.743591 837.692322 nan nan
1549505436.056426 /muse/eeg  
1549505436.056410 /muse/eeg ffffff  870.329651 850.989014 893.699646 856.227112 nan nan
1549505436.056452 /muse/eeg  
1549505436.056436 /muse/eeg ffffff  878.791199 850.586060 905.787537 848.974365 nan nan
1549505436.056478 /muse/eeg  
1549505436.056463 /muse/eeg ffffff  876.373596 852.600708 901.355286 830.842468 nan nan
1549505436.056502 /muse/eeg  
1549505436.056487 /muse/eeg ffffff  856.630066 846.959717 898.534790 850.989014 nan nan
1549505436.056529 /muse/eeg  
1549505436.056513 /muse/eeg ffffff  853.809509 849.377319 889.670349 853.003662 nan nan
1549505436.056565 /muse/eeg  
1549505436.056539 /muse/eeg ffffff  862.674011 859.450562 885.641052 826.410278 nan nan
1549505436.056595 /muse/eeg  
1549505436.056580 /muse/eeg ffffff  855.824158 857.838806 899.340637 823.589722 nan nan
1549505436.056621 /muse/eeg  
1549505436.056607 /muse/eeg ffffff  851.794861 853.003662 900.146545 845.347961 nan nan
1549505436.056647 /muse/eeg  
1549505436.056632 /muse/eeg ffffff  861.465210 855.421265 901.355286 838.498169 nan nan
1549505436.056672 /muse/eeg  
1549505436.056657 /muse/eeg ffffff  846.959717 851.794861 890.476196 829.633728 nan nan
1549505436.056698 /muse/eeg  
1549505436.056683 /muse/eeg ffffff  855.824158 851.794861 889.267395 866.300354 nan nan
1549505436.087654 /muse/eeg  
1549505436.087609 /muse/eeg ffffff  862.271057 857.838806 898.131897 864.688660 nan nan
1549505436.087703 /muse/eeg  
1549505436.087686 /muse/eeg ffffff  853.003662 854.615356 897.728943 852.197815 nan nan
1549505436.087743 /muse/eeg  
1549505436.087723 /muse/eeg ffffff  871.538452 848.168518 894.908447 853.003662 nan nan
1549505436.087782 /muse/eeg  
1549505436.087762 /muse/eeg ffffff  867.912109 845.347961 875.970703 840.109863 nan nan
1549505436.087828 /muse/eeg  
1549505436.087801 /muse/eeg ffffff  863.882812 851.391968 877.985352 846.959717 nan nan
1549505436.088993 /muse/eeg  
1549505436.089223 /muse/eeg  
1549505436.089231 /muse/eeg  
1549505436.089236 /muse/eeg  
1549505436.089240 /muse/eeg  
1549505436.089247 /muse/eeg  
1549505436.089251 /muse/eeg  
1549505436.089256 /muse/eeg  
1549505436.089260 /muse/eeg  
1549505436.089265 /muse/eeg  
1549505436.089270 /muse/eeg  
1549505436.089274 /muse/eeg  
1549505436.089279 /muse/eeg  
1549505436.089284 /muse/eeg  
1549505436.089288 /muse/eeg  
1549505436.089293 /muse/eeg  
1549505436.089298 /muse/eeg  
1549505436.089302 /muse/eeg  
1549505436.089434 /muse/eeg  
1549505436.087847 /muse/eeg ffffff  869.926758 852.600708 881.208801 868.315002 nan nan
1549505436.089481 /muse/eeg  
1549505436.089449 /muse/eeg ffffff  884.835144 853.406616 880.000000 871.941406 nan nan
1549505436.089514 /muse/eeg  
1549505436.089496 /muse/eeg ffffff  865.897461 850.183167 877.985352 857.838806 nan nan
1549505436.089543 /muse/eeg  
1549505436.089526 /muse/eeg ffffff  855.824158 845.347961 865.897461 850.989014 nan nan
1549505436.089579 /muse/eeg  
1549505436.089554 /muse/eeg ffffff  863.882812 845.750916 870.329651 850.183167 nan nan
1549505436.089621 /muse/eeg  
1549505436.089601 /muse/eeg ffffff  861.062256 844.542114 871.941406 844.945068 nan nan
1549505436.089655 /muse/eeg  
1549505436.089635 /muse/eeg ffffff  866.300354 848.168518 868.315002 857.838806 nan nan
1549505436.089682 /muse/eeg  
1549505436.089695 /muse/eeg  
1549505436.089700 /muse/eeg  
1549505436.089709 /muse/acc fff  0.275879 0.189148 0.950562
1549505436.089723 /muse/acc fff  0.277405 0.192322 0.943481
1549505436.089729 /muse/acc fff  0.273438 0.194458 0.936829
1549505436.089742 /muse/drlref ff  1697142.875000 1695531.125000
1549505436.089751 /muse/drlref ff  1697142.875000 1695531.125000
1549505436.089762 /muse/drlref ff  1697142.875000 1695531.125000
1549505436.089768 /muse/drlref ff  1697142.875000 1695531.125000
1549505436.089774 /muse/drlref ff  1697142.875000 1695531.125000
1549505436.089781 /muse/drlref ff  1697142.875000 1695531.125000
1549505436.118895 /muse/eeg  
1549505436.118851 /muse/eeg ffffff  851.391968 847.765564 859.450562 852.600708 nan nan
1549505436.118980 /muse/eeg  
1549505436.118957 /muse/eeg ffffff  858.241760 845.750916 863.882812 849.377319 nan nan
1549505436.119030 /muse/eeg  
1549505436.119002 /muse/eeg ffffff  868.315002 844.945068 878.388306 861.465210 nan nan
1549505436.119068 /muse/eeg  
1549505436.119048 /muse/eeg ffffff  835.677673 844.945068 880.805847 861.868103 nan nan
1549505436.119105 /muse/eeg  
1549505436.119085 /muse/eeg ffffff  848.974365 846.556763 876.776550 862.271057 nan nan
1549505436.119144 /muse/eeg  
1549505436.119123 /muse/eeg ffffff  863.479858 845.750916 867.509155 848.571411 nan nan
1549505436.119181 /muse/eeg  
1549505436.119161 /muse/eeg ffffff  847.362610 841.318665 868.315002 840.915771 nan nan
1549505436.119224 /muse/eeg  
1549505436.119203 /muse/eeg ffffff  841.721619 840.109863 875.970703 854.615356 nan nan
1549505436.119264 /muse/eeg  
1549505436.119244 /muse/eeg ffffff  841.721619 842.527466 880.805847 845.750916 nan nan
1549505436.119301 /muse/eeg  
1549505436.119282 /muse/eeg ffffff  829.633728 846.153870 885.238098 841.721619 nan nan
1549505436.119338 /muse/eeg  
1549505436.119319 /muse/eeg ffffff  847.362610 845.347961 869.120850 855.018311 nan nan
1549505436.119371 /muse/eeg  
1549505436.119355 /muse/eeg ffffff  848.168518 841.318665 869.926758 860.256409 nan nan
1549505436.119395 /muse/eeg  
1549505436.119399 /muse/eeg  
1549505436.119402 /muse/eeg  
1549505436.150069 /muse/acc fff  0.267639 0.195618 0.942566
1549505436.150110 /muse/acc fff  0.264893 0.198364 0.937317
1549505436.150118 /muse/acc fff  0.260681 0.197449 0.933472
1549505436.181401 /muse/eeg  
1549505436.181358 /muse/eeg ffffff  832.454224 843.736267 884.835144 843.736267 nan nan
1549505436.181460 /muse/eeg  
1549505436.181437 /muse/eeg ffffff  832.454224 842.527466 873.956055 831.245422 nan nan
1549505436.181510 /muse/eeg  
1549505436.181485 /muse/eeg ffffff  839.706970 839.304016 865.897461 847.362610 nan nan
1549505436.181559 /muse/eeg  
1549505436.181537 /muse/eeg ffffff  848.168518 837.289368 861.465210 848.168518 nan nan
1549505436.181603 /muse/eeg  
1549505436.181579 /muse/eeg ffffff  830.842468 840.915771 869.523804 832.051270 nan nan
1549505436.181646 /muse/eeg  
1549505436.181622 /muse/eeg ffffff  833.663025 842.527466 873.956055 845.750916 nan nan
1549505436.181677 /muse/eeg  
1549505436.181658 /muse/eeg ffffff  856.227112 843.736267 882.820496 857.838806 nan nan
1549505436.182859 /muse/eeg  
1549505436.183083 /muse/eeg  
1549505436.183091 /muse/eeg  
1549505436.183096 /muse/eeg  
1549505436.183101 /muse/eeg  
1549505436.183106 /muse/eeg  
1549505436.183110 /muse/eeg  
1549505436.183116 /muse/eeg  
1549505436.183121 /muse/eeg  
1549505436.183126 /muse/eeg  
1549505436.183131 /muse/eeg  
1549505436.183136 /muse/eeg  
1549505436.183140 /muse/eeg  
1549505436.183146 /muse/eeg  
1549505436.183150 /muse/eeg  
1549505436.183155 /muse/eeg  
1549505436.183161 /muse/eeg  
1549505436.183165 /muse/eeg  
1549505436.183298 /muse/eeg  
1549505436.181691 /muse/eeg ffffff  833.260071 844.945068 879.597046 849.377319 nan nan
1549505436.183344 /muse/eeg  
1549505436.183313 /muse/eeg ffffff  836.886475 839.706970 861.062256 852.600708 nan nan
1549505436.183383 /muse/eeg  
1549505436.183363 /muse/eeg ffffff  840.512817 839.706970 871.538452 851.794861 nan nan
1549505436.183415 /muse/eeg  
1549505436.183397 /muse/eeg ffffff  822.783875 841.318665 881.611694 843.736267 nan nan
1549505436.183444 /muse/eeg  
1549505436.183427 /muse/eeg ffffff  830.036621 842.124512 877.582397 847.765564 nan nan
1549505436.183470 /muse/eeg  
1549505436.183479 /muse/eeg  
1549505436.183482 /muse/eeg  
1549505436.183491 /muse/acc fff  0.261902 0.198975 0.929260
1549505436.183506 /muse/acc fff  0.265076 0.200562 0.931702
1549505436.183512 /muse/acc fff  0.264160 0.201050 0.935242
1549505436.243876 /muse/eeg  
1549505436.243832 /muse/eeg ffffff  837.692322 839.706970 871.941406 839.304016 nan nan
1549505436.243950 /muse/eeg  
1549505436.243918 /muse/eeg ffffff  844.542114 844.542114 878.791199 843.333313 nan nan
1549505436.243999 /muse/eeg  
1549505436.243976 /muse/eeg ffffff  853.003662 850.586060 885.238098 838.498169 nan nan
1549505436.244048 /muse/eeg  
1549505436.244024 /muse/eeg ffffff  851.391968 848.571411 880.805847 843.333313 nan nan
1549505436.244094 /muse/eeg  
1549505436.244070 /muse/eeg ffffff  824.395630 842.930420 877.985352 850.989014 nan nan
1549505436.244134 /muse/eeg  
1549505436.244114 /muse/eeg ffffff  819.157532 837.289368 867.912109 847.362610 nan nan
1549505436.244167 /muse/eeg  
1549505436.244148 /muse/eeg ffffff  831.245422 838.498169 872.747253 847.362610 nan nan
1549505436.244197 /muse/eeg  
1549505436.244180 /muse/eeg ffffff  830.036621 840.915771 877.179504 842.124512 nan nan
1549505436.244230 /muse/eeg  
1549505436.244211 /muse/eeg ffffff  826.813171 838.498169 869.523804 860.256409 nan nan
1549505436.244271 /muse/eeg  
1549505436.244252 /muse/eeg ffffff  849.780212 843.333313 872.747253 843.333313 nan nan
1549505436.244319 /muse/eeg  
1549505436.244295 /muse/eeg ffffff  846.153870 842.527466 859.047607 830.842468 nan nan
1549505436.244352 /muse/eeg  
1549505436.244333 /muse/eeg ffffff  834.871765 843.736267 859.047607 842.527466 nan nan
1549505436.244379 /muse/eeg  
1549505436.244384 /muse/eeg  
1549505436.244388 /muse/eeg  
1549505436.244395 /muse/acc fff  0.258606 0.202209 0.932861
1549505436.244415 /muse/acc fff  0.252869 0.204041 0.933472
1549505436.244428 /muse/acc fff  0.252441 0.207520 0.933838
1549505436.275133 /muse/eeg  
1549505436.275090 /muse/eeg ffffff  860.256409 848.168518 875.567749 844.542114 nan nan
1549505436.275184 /muse/eeg  
1549505436.275164 /muse/eeg ffffff  846.959717 849.780212 871.941406 847.765564 nan nan
1549505436.275220 /muse/eeg  
1549505436.275200 /muse/eeg ffffff  833.260071 846.153870 865.091553 847.362610 nan nan
1549505436.275251 /muse/eeg  
1549505436.275232 /muse/eeg ffffff  837.289368 840.512817 867.509155 853.406616 nan nan
1549505436.275284 /muse/eeg  
1549505436.275264 /muse/eeg ffffff  843.333313 840.915771 875.567749 846.959717 nan nan
1549505436.275315 /muse/eeg  
1549505436.275296 /muse/eeg ffffff  854.212463 838.095215 865.091553 846.153870 nan nan
1549505436.275349 /muse/eeg  
1549505436.275329 /muse/eeg ffffff  840.109863 841.318665 871.538452 845.750916 nan nan
1549505436.275380 /muse/eeg  
1549505436.275361 /muse/eeg ffffff  832.454224 840.512817 879.597046 855.018311 nan nan
1549505436.275412 /muse/eeg  
1549505436.275392 /muse/eeg ffffff  844.542114 837.692322 874.358948 841.721619 nan nan
1549505436.276531 /muse/eeg  
1549505436.276739 /muse/eeg  
1549505436.276746 /muse/eeg  
1549505436.276751 /muse/eeg  
1549505436.276756 /muse/eeg  
1549505436.276760 /muse/eeg  
1549505436.276764 /muse/eeg  
1549505436.276768 /muse/eeg  
1549505436.276772 /muse/eeg  
1549505436.276777 /muse/eeg  
1549505436.276780 /muse/eeg  
1549505436.276785 /muse/eeg  
1549505436.276789 /muse/eeg  
1549505436.276793 /muse/eeg  
1549505436.276797 /muse/eeg  
1549505436.276801 /muse/eeg  
1549505436.276805 /muse/eeg  
1549505436.276809 /muse/eeg  
1549505436.276940 /muse/eeg  
1549505436.275424 /muse/eeg ffffff  848.168518 836.886475 873.553101 816.739929 nan nan
1549505436.276983 /muse/eeg  
1549505436.276955 /muse/eeg ffffff  841.318665 832.857117 873.150208 841.318665 nan nan
1549505436.277009 /muse/eeg  
1549505436.276993 /muse/eeg ffffff  843.736267 842.930420 885.238098 859.450562 nan nan
1549505436.277032 /muse/drlref ff  1697142.875000 1695531.125000
1549505436.277040 /muse/drlref ff  1697142.875000 1695531.125000
1549505436.277048 /muse/drlref ff  1697142.875000 1695531.125000
1549505436.277053 /muse/drlref ff  1697142.875000 1695531.125000
1549505436.277059 /muse/drlref ff  1697142.875000 1695531.125000
1549505436.277066 /muse/drlref ff  1697142.875000 1695531.125000
1549505436.306306 /muse/eeg  
1549505436.306334 /muse/eeg  
1549505436.306340 /muse/eeg  
1549505436.306353 /muse/acc fff  0.256592 0.210999 0.932007
1549505436.306371 /muse/acc fff  0.255188 0.212952 0.931091
1549505436.306382 /muse/acc fff  0.255249 0.213318 0.929749
1549505436.337619 /muse/eeg  
1549505436.337574 /muse/eeg ffffff  838.095215 846.153870 870.329651 840.915771 nan nan
1549505436.337680 /muse/eeg  
1549505436.337650 /muse/eeg ffffff  832.454224 840.915771 860.256409 829.633728 nan nan
1549505436.337720 /muse/eeg  
1549505436.337699 /muse/eeg ffffff  833.663025 847.765564 877.179504 846.153870 nan nan
1549505436.337758 /muse/eeg  
1549505436.337738 /muse/eeg ffffff  847.362610 849.377319 874.761902 841.721619 nan nan
1549505436.337795 /muse/eeg  
1549505436.337775 /muse/eeg ffffff  852.197815 849.780212 877.179504 847.362610 nan nan
1549505436.337832 /muse/eeg  
1549505436.337811 /muse/eeg ffffff  859.450562 845.347961 873.956055 843.736267 nan nan
1549505436.337864 /muse/eeg  
1549505436.337845 /muse/eeg ffffff  868.315002 844.945068 868.315002 852.600708 nan nan
1549505436.337898 /muse/eeg  
1549505436.337878 /muse/eeg ffffff  848.571411 852.600708 875.567749 856.630066 nan nan
1549505436.337930 /muse/eeg  
1549505436.337911 /muse/eeg ffffff  839.706970 846.959717 883.223450 839.706970 nan nan
1549505436.337959 /muse/eeg  
1549505436.337944 /muse/eeg ffffff  857.032959 848.168518 885.641052 857.032959 nan nan
1549505436.338001 /muse/eeg  
1549505436.337980 /muse/eeg ffffff  859.047607 846.556763 863.882812 872.344299 nan nan
1549505436.338031 /muse/eeg  
1549505436.338014 /muse/eeg ffffff  853.003662 844.542114 859.047607 858.644714 nan nan
1549505436.368872 /muse/eeg  
1549505436.368834 /muse/eeg ffffff  846.959717 852.600708 868.717957 828.827820 nan nan
1549505436.368924 /muse/eeg  
1549505436.368904 /muse/eeg ffffff  826.813171 850.989014 862.271057 811.904785 nan nan
1549505436.368962 /muse/eeg  
1549505436.368940 /muse/eeg ffffff  796.190491 838.095215 862.271057 797.802185 nan nan
1549505436.368988 /muse/eeg  
1549505436.368973 /muse/eeg ffffff  785.311340 838.498169 863.479858 788.131897 nan nan
1549505436.369015 /muse/eeg  
1549505436.368999 /muse/eeg ffffff  786.117188 848.974365 863.076904 783.296692 nan nan
1549505436.369041 /muse/eeg  
1549505436.369026 /muse/eeg ffffff  778.058594 848.974365 853.809509 774.432251 nan nan
1549505436.369066 /muse/eeg  
1549505436.369051 /muse/eeg ffffff  783.296692 849.377319 862.674011 754.688660 nan nan
1549505436.369098 /muse/eeg  
1549505436.369077 /muse/eeg ffffff  780.879150 846.959717 865.091553 732.527466 nan nan
1549505436.369130 /muse/eeg  
1549505436.369116 /muse/eeg ffffff  742.197815 843.333313 855.018311 739.377319 nan nan
1549505436.369156 /muse/eeg  
1549505436.369141 /muse/eeg ffffff  726.080566 854.615356 863.076904 740.183167 nan nan
1549505436.369193 /muse/eeg  
1549505436.369173 /muse/eeg ffffff  742.197815 863.479858 862.674011 726.080566 nan nan
1549505436.370299 /muse/eeg  
1549505436.370510 /muse/eeg  
1549505436.370518 /muse/eeg  
1549505436.370523 /muse/eeg  
1549505436.370527 /muse/eeg  
1549505436.370531 /muse/eeg  
1549505436.370536 /muse/eeg  
1549505436.370540 /muse/eeg  
1549505436.370544 /muse/eeg  
1549505436.370548 /muse/eeg  
1549505436.370553 /muse/eeg  
1549505436.370557 /muse/eeg  
1549505436.370561 /muse/eeg  
1549505436.370566 /muse/eeg  
1549505436.370570 /muse/eeg  
1549505436.370574 /muse/eeg  
1549505436.370579 /muse/eeg  
1549505436.370583 /muse/eeg  
1549505436.370714 /muse/eeg  
1549505436.369205 /muse/eeg ffffff  760.329651 859.047607 855.824158 718.424927 nan nan
1549505436.370738 /muse/eeg  
1549505436.370750 /muse/eeg  
1549505436.370755 /muse/eeg  
1549505436.370766 /muse/acc fff  0.250610 0.217224 0.923645
1549505436.370781 /muse/acc fff  0.246094 0.222412 0.928833
1549505436.370788 /muse/acc fff  0.256470 0.229980 0.939453
1549505436.400218 /muse/eeg  
1549505436.400187 /muse/eeg ffffff  736.959717 854.212463 845.347961 722.454224 nan nan
1549505436.400264 /muse/eeg  
1549505436.400246 /muse/eeg ffffff  701.098877 849.780212 846.959717 722.051270 nan nan
1549505436.400299 /muse/eeg  
1549505436.400279 /muse/eeg ffffff  719.230774 847.765564 853.003662 724.065918 nan nan
1549505436.400330 /muse/eeg  
1549505436.400311 /muse/eeg ffffff  736.153870 846.959717 840.512817 723.663025 nan nan
1549505436.400360 /muse/eeg  
1549505436.400342 /muse/eeg ffffff  724.871765 843.333313 836.483521 725.677673 nan nan
1549505436.400391 /muse/eeg  
1549505436.400373 /muse/eeg ffffff  736.959717 846.153870 835.677673 742.197815 nan nan
1549505436.400422 /muse/eeg  
1549505436.400404 /muse/eeg ffffff  738.168518 848.974365 840.109863 727.692322 nan nan
1549505436.400456 /muse/eeg  
1549505436.400437 /muse/eeg ffffff  709.963379 846.153870 848.974365 718.827820 nan nan
1549505436.400483 /muse/eeg  
1549505436.400468 /muse/eeg ffffff  743.406616 850.989014 856.227112 741.794861 nan nan
1549505436.400510 /muse/eeg  
1549505436.400495 /muse/eeg ffffff  767.582397 855.018311 854.615356 742.600708 nan nan
1549505436.400539 /muse/eeg  
1549505436.400521 /muse/eeg ffffff  743.003662 845.347961 833.260071 743.809509 nan nan
1549505436.400589 /muse/eeg  
1549505436.400551 /muse/eeg ffffff  768.388306 842.930420 836.483521 757.509155 nan nan
1549505436.400607 /muse/eeg  
1549505436.400610 /muse/eeg  
1549505436.400613 /muse/eeg  
1549505436.400620 /muse/acc fff  0.253113 0.233032 0.938477
1549505436.400634 /muse/acc fff  0.249084 0.235046 0.937317
1549505436.400642 /muse/acc fff  0.237366 0.237976 0.944397
1549505436.431295 /muse/eeg  
1549505436.431254 /muse/eeg ffffff  789.340637 848.974365 853.003662 770.805847 nan nan
1549505436.431378 /muse/eeg  
1549505436.431322 /muse/eeg ffffff  791.758240 852.600708 853.003662 785.311340 nan nan
1549505436.431567 /muse/eeg  
1549505436.431505 /muse/eeg ffffff  800.622681 849.780212 845.347961 810.695984 nan nan
1549505436.431704 /muse/eeg  
1549505436.431667 /muse/eeg ffffff  815.531128 845.750916 846.153870 796.593384 nan nan
1549505436.431833 /muse/eeg  
1549505436.431794 /muse/eeg ffffff  804.652039 844.945068 855.421265 775.238098 nan nan
1549505436.431957 /muse/eeg  
1549505436.431895 /muse/eeg ffffff  788.937744 849.780212 850.989014 790.146545 nan nan
1549505436.432087 /muse/eeg  
1549505436.432025 /muse/eeg ffffff  811.904785 852.197815 853.003662 801.428589 nan nan
1549505436.432189 /muse/eeg  
1549505436.432154 /muse/eeg ffffff  823.186829 850.586060 844.945068 807.472534 nan nan
1549505436.432225 /muse/eeg  
1549505436.432210 /muse/eeg ffffff  829.633728 848.168518 834.065918 813.919434 nan nan
1549505436.432260 /muse/eeg  
1549505436.432247 /muse/eeg ffffff  838.095215 847.362610 842.124512 829.230774 nan nan
1549505436.432297 /muse/eeg  
1549505436.432281 /muse/eeg ffffff  813.516479 844.542114 840.915771 846.556763 nan nan
1549505436.432342 /muse/eeg  
1549505436.432323 /muse/eeg ffffff  816.739929 842.124512 842.930420 848.168518 nan nan
1549505436.462485 /muse/eeg  
1549505436.462508 /muse/eeg  
1549505436.462513 /muse/eeg  
1549505436.462523 /muse/acc fff  0.230042 0.240662 0.953674
1549505436.462543 /muse/acc fff  0.216309 0.239197 0.954590
1549505436.462552 /muse/acc fff  0.207214 0.244812 0.954407
1549505436.493875 /muse/eeg  
1549505436.493819 /muse/eeg ffffff  839.706970 842.124512 832.857117 821.172180 nan nan
1549505436.495250 /muse/eeg  
1549505436.495494 /muse/eeg  
1549505436.495503 /muse/eeg  
1549505436.495508 /muse/eeg  
1549505436.495512 /muse/eeg  
1549505436.495517 /muse/eeg  
1549505436.495522 /muse/eeg  
1549505436.495527 /muse/eeg  
1549505436.495532 /muse/eeg  
1549505436.495537 /muse/eeg  
1549505436.495542 /muse/eeg  
1549505436.495547 /muse/eeg  
1549505436.495552 /muse/eeg  
1549505436.495557 /muse/eeg  
1549505436.495562 /muse/eeg  
1549505436.495566 /muse/eeg  
1549505436.495574 /muse/eeg  
1549505436.495579 /muse/eeg  
1549505436.495710 /muse/eeg  
1549505436.493899 /muse/eeg ffffff  853.809509 846.959717 825.201477 821.575073 nan nan
1549505436.495759 /muse/eeg  
1549505436.495726 /muse/eeg ffffff  846.556763 855.018311 833.663025 834.468872 nan nan
1549505436.495788 /muse/eeg  
1549505436.495771 /muse/eeg ffffff  838.901123 852.197815 833.260071 836.483521 nan nan
1549505436.495816 /muse/eeg  
1549505436.495799 /muse/eeg ffffff  844.945068 844.542114 831.648376 844.542114 nan nan
1549505436.495844 /muse/eeg  
1549505436.495828 /muse/eeg ffffff  853.406616 840.915771 814.322327 843.333313 nan nan
1549505436.495876 /muse/eeg  
1549505436.495856 /muse/eeg ffffff  843.333313 838.498169 813.113525 841.318665 nan nan
1549505436.495904 /muse/eeg  
1549505436.495888 /muse/eeg ffffff  850.989014 841.318665 826.410278 856.227112 nan nan
1549505436.495932 /muse/eeg  
1549505436.495916 /muse/eeg ffffff  855.824158 846.959717 822.783875 865.897461 nan nan
1549505436.495958 /muse/eeg  
1549505436.495942 /muse/eeg ffffff  849.780212 845.750916 821.172180 856.227112 nan nan
1549505436.495986 /muse/eeg  
1549505436.495969 /muse/eeg ffffff  853.406616 844.542114 818.754578 852.197815 nan nan
1549505436.496013 /muse/eeg  
1549505436.495997 /muse/eeg ffffff  842.124512 843.736267 818.351624 842.527466 nan nan
1549505436.496037 /muse/drlref ff  1697142.875000 1695531.125000
1549505436.496045 /muse/drlref ff  1697142.875000 1695531.125000
1549505436.496054 /muse/drlref ff  1697142.875000 1695531.125000
1549505436.496060 /muse/drlref ff  1697142.875000 1695531.125000
1549505436.496066 /muse/drlref ff  1697142.875000 1695531.125000
1549505436.496079 /muse/drlref ff  1697142.875000 1695531.125000
1549505436.496090 /muse/eeg  
1549505436.496095 /muse/eeg  
1549505436.496098 /muse/eeg  
1549505436.496106 /muse/acc fff  0.193481 0.242493 0.944946
1549505436.496115 /muse/acc fff  0.179871 0.245544 0.951294
1549505436.496122 /muse/acc fff  0.168579 0.244446 0.951538
1549505436.556300 /muse/eeg  
1549505436.556244 /muse/eeg ffffff  844.542114 841.721619 821.978027 854.212463 nan nan
1549505436.556356 /muse/eeg  
1549505436.556332 /muse/eeg ffffff  853.003662 839.304016 825.201477 856.630066 nan nan
1549505436.556400 /muse/eeg  
1549505436.556380 /muse/eeg ffffff  855.824158 840.109863 820.769226 845.750916 nan nan
1549505436.556438 /muse/eeg  
1549505436.556419 /muse/eeg ffffff  859.047607 840.915771 819.560425 853.406616 nan nan
1549505436.556479 /muse/eeg  
1549505436.556460 /muse/eeg ffffff  882.820496 842.527466 829.230774 862.674011 nan nan
1549505436.556514 /muse/eeg  
1549505436.556493 /muse/eeg ffffff  890.073242 847.765564 826.007324 859.450562 nan nan
1549505436.556543 /muse/eeg  
1549505436.556527 /muse/eeg ffffff  859.450562 847.362610 827.619019 865.897461 nan nan
1549505436.556582 /muse/eeg  
1549505436.556561 /muse/eeg ffffff  871.538452 844.139221 830.036621 871.135559 nan nan
1549505436.556614 /muse/eeg  
1549505436.556594 /muse/eeg ffffff  877.985352 842.124512 826.410278 866.300354 nan nan
1549505436.556644 /muse/eeg  
1549505436.556627 /muse/eeg ffffff  880.805847 848.571411 838.095215 875.164856 nan nan
1549505436.556684 /muse/eeg  
1549505436.556663 /muse/eeg ffffff  883.223450 846.959717 840.915771 870.732605 nan nan
1549505436.556712 /muse/eeg  
1549505436.556697 /muse/eeg ffffff  885.238098 839.706970 840.915771 870.732605 nan nan
1549505436.556738 /muse/eeg  
1549505436.556747 /muse/eeg  
1549505436.556753 /muse/eeg  
1549505436.587534 /muse/acc fff  0.162109 0.240662 0.966370
1549505436.587575 /muse/acc fff  0.152527 0.237427 0.970215
1549505436.587584 /muse/acc fff  0.150513 0.229797 0.962036
1549505436.587663 /muse/eeg  
1549505436.587632 /muse/eeg ffffff  899.743591 840.512817 836.886475 893.296692 nan nan
1549505436.587701 /muse/eeg  
1549505436.587681 /muse/eeg ffffff  900.146545 846.153870 833.663025 896.117188 nan nan
1549505436.587739 /muse/eeg  
1549505436.587719 /muse/eeg ffffff  888.058594 850.183167 847.362610 891.282043 nan nan
1549505436.588838 /muse/eeg  
1549505436.589069 /muse/eeg  
1549505436.589076 /muse/eeg  
1549505436.589080 /muse/eeg  
1549505436.589087 /muse/eeg  
1549505436.589094 /muse/eeg  
1549505436.589106 /muse/eeg  
1549505436.589112 /muse/eeg  
1549505436.589116 /muse/eeg  
1549505436.589122 /muse/eeg  
1549505436.589127 /muse/eeg  
1549505436.589132 /muse/eeg  
1549505436.589137 /muse/eeg  
1549505436.589143 /muse/eeg  
1549505436.589147 /muse/eeg  
1549505436.589152 /muse/eeg  
1549505436.589158 /muse/eeg  
1549505436.589165 /muse/eeg  
1549505436.589301 /muse/eeg  
1549505436.587760 /muse/eeg ffffff  901.758240 846.959717 848.168518 900.952393 nan nan
1549505436.589346 /muse/eeg  
1549505436.589315 /muse/eeg ffffff  894.908447 846.959717 845.750916 900.549438 nan nan
1549505436.589376 /muse/eeg  
1549505436.589360 /muse/eeg ffffff  871.941406 841.721619 832.857117 883.223450 nan nan
1549505436.589404 /muse/eeg  
1549505436.589387 /muse/eeg ffffff  876.776550 838.901123 825.201477 875.164856 nan nan
1549505436.589434 /muse/eeg  
1549505436.589418 /muse/eeg ffffff  876.373596 842.930420 832.857117 868.717957 nan nan
1549505436.589465 /muse/eeg  
1549505436.589446 /muse/eeg ffffff  898.534790 836.483521 831.648376 868.315002 nan nan
1549505436.589501 /muse/eeg  
1549505436.589482 /muse/eeg ffffff  882.417603 825.201477 823.186829 876.373596 nan nan
1549505436.589536 /muse/eeg  
1549505436.589517 /muse/eeg ffffff  861.868103 829.633728 815.531128 863.076904 nan nan
1549505436.589571 /muse/eeg  
1549505436.589549 /muse/eeg ffffff  895.714294 843.736267 817.948730 890.476196 nan nan
1549505436.650119 /muse/eeg  
1549505436.650075 /muse/eeg ffffff  891.684998 842.124512 824.798523 908.205139 nan nan
1549505436.650166 /muse/eeg  
1549505436.650152 /muse/eeg ffffff  859.450562 838.901123 826.813171 868.717957 nan nan
1549505436.650193 /muse/eeg  
1549505436.650177 /muse/eeg ffffff  848.571411 841.721619 819.157532 855.018311 nan nan
1549505436.650229 /muse/eeg  
1549505436.650209 /muse/eeg ffffff  845.347961 837.692322 820.366272 849.377319 nan nan
1549505436.650262 /muse/eeg  
1549505436.650242 /muse/eeg ffffff  840.109863 837.289368 838.095215 847.362610 nan nan
1549505436.650299 /muse/eeg  
1549505436.650278 /muse/eeg ffffff  838.095215 834.468872 846.959717 862.271057 nan nan
1549505436.650330 /muse/eeg  
1549505436.650311 /muse/eeg ffffff  847.765564 826.813171 853.003662 861.465210 nan nan
1549505436.650365 /muse/eeg  
1549505436.650344 /muse/eeg ffffff  858.644714 821.172180 851.391968 864.688660 nan nan
1549505436.650397 /muse/eeg  
1549505436.650377 /muse/eeg ffffff  848.974365 822.783875 843.333313 843.333313 nan nan
1549505436.650430 /muse/eeg  
1549505436.650410 /muse/eeg ffffff  827.216125 825.201477 850.989014 830.842468 nan nan
1549505436.650463 /muse/eeg  
1549505436.650443 /muse/eeg ffffff  815.934082 823.589722 850.989014 832.051270 nan nan
1549505436.650495 /muse/eeg  
1549505436.650475 /muse/eeg ffffff  803.443237 822.783875 844.139221 818.351624 nan nan
1549505436.650514 /muse/eeg  
1549505436.650518 /muse/eeg  
1549505436.650521 /muse/eeg  
1549505436.650528 /muse/acc fff  0.131897 0.225525 0.955261
1549505436.650542 /muse/acc fff  0.134338 0.217224 0.957031
1549505436.650548 /muse/acc fff  0.143555 0.213135 0.953918
1549505436.681352 /muse/eeg  
1549505436.681303 /muse/eeg ffffff  807.069580 814.322327 833.260071 836.080566 nan nan
1549505436.681402 /muse/eeg  
1549505436.681385 /muse/eeg ffffff  818.754578 813.919434 836.483521 836.483521 nan nan
1549505436.681443 /muse/eeg  
1549505436.681423 /muse/eeg ffffff  801.831482 821.575073 849.377319 828.424927 nan nan
1549505436.681482 /muse/eeg  
1549505436.681462 /muse/eeg ffffff  792.967041 823.186829 845.750916 829.230774 nan nan
1549505436.681520 /muse/eeg  
1549505436.681501 /muse/eeg ffffff  805.457886 821.172180 848.974365 838.498169 nan nan
1549505436.682784 /muse/eeg  
1549505436.682977 /muse/eeg  
1549505436.682984 /muse/eeg  
1549505436.682990 /muse/eeg  
1549505436.682995 /muse/eeg  
1549505436.682999 /muse/eeg  
1549505436.683006 /muse/eeg  
1549505436.683010 /muse/eeg  
1549505436.683014 /muse/eeg  
1549505436.683019 /muse/eeg  
1549505436.683023 /muse/eeg  
1549505436.683027 /muse/eeg  
1549505436.683031 /muse/eeg  
1549505436.683036 /muse/eeg  
1549505436.683040 /muse/eeg  
1549505436.683044 /muse/eeg  
1549505436.683048 /muse/eeg  
1549505436.683053 /muse/eeg  
1549505436.683185 /muse/eeg  
1549505436.681537 /muse/eeg ffffff  814.725281 818.351624 843.333313 838.901123 nan nan
1549505436.683226 /muse/eeg  
1549505436.683199 /muse/eeg ffffff  821.575073 821.575073 847.362610 835.677673 nan nan
1549505436.683253 /muse/eeg  
1549505436.683237 /muse/eeg ffffff  822.783875 822.380981 856.227112 834.871765 nan nan
1549505436.683281 /muse/eeg  
1549505436.683265 /muse/eeg ffffff  813.919434 819.963379 849.780212 836.080566 nan nan
1549505436.683306 /muse/eeg  
1549505436.683290 /muse/eeg ffffff  818.351624 828.424927 848.571411 846.153870 nan nan
1549505436.683332 /muse/eeg  
1549505436.683317 /muse/eeg ffffff  823.186829 833.663025 840.915771 845.750916 nan nan
1549505436.683359 /muse/eeg  
1549505436.683343 /muse/eeg ffffff  818.754578 837.289368 849.377319 846.153870 nan nan
1549505436.683382 /muse/eeg  
1549505436.683388 /muse/eeg  
1549505436.683391 /muse/eeg  
1549505436.683399 /muse/acc fff  0.147522 0.211914 0.941406
1549505436.683408 /muse/acc fff  0.140381 0.210327 0.946045
1549505436.683414 /muse/acc fff  0.130371 0.210388 0.949707
1549505436.712536 /muse/drlref ff  1697142.875000 1695531.125000
1549505436.712573 /muse/drlref ff  1697142.875000 1695531.125000
1549505436.712587 /muse/drlref ff  1697142.875000 1695531.125000
1549505436.712593 /muse/drlref ff  1697142.875000 1695531.125000
1549505436.712598 /muse/drlref ff  1697142.875000 1695531.125000
1549505436.712607 /muse/drlref ff  1697142.875000 1695531.125000
1549505436.743833 /muse/eeg  
1549505436.743790 /muse/eeg ffffff  805.457886 842.124512 867.912109 844.139221 nan nan
1549505436.743882 /muse/eeg  
1549505436.743862 /muse/eeg ffffff  805.054932 837.289368 865.494507 824.798523 nan nan
1549505436.743917 /muse/eeg  
1549505436.743897 /muse/eeg ffffff  835.677673 832.454224 855.824158 827.619019 nan nan
1549505436.743968 /muse/eeg  
1549505436.743941 /muse/eeg ffffff  850.586060 831.245422 851.794861 835.677673 nan nan
1549505436.744005 /muse/eeg  
1549505436.743985 /muse/eeg ffffff  830.842468 832.454224 859.853455 848.168518 nan nan
1549505436.744043 /muse/eeg  
1549505436.744023 /muse/eeg ffffff  821.575073 826.813171 849.780212 854.615356 nan nan
1549505436.744074 /muse/eeg  
1549505436.744055 /muse/eeg ffffff  825.201477 827.619019 843.736267 842.930420 nan nan
1549505436.744106 /muse/eeg  
1549505436.744087 /muse/eeg ffffff  827.216125 830.439575 843.333313 852.197815 nan nan
1549505436.744135 /muse/eeg  
1549505436.744119 /muse/eeg ffffff  827.216125 829.230774 843.736267 849.377319 nan nan
1549505436.744169 /muse/eeg  
1549505436.744153 /muse/eeg ffffff  820.366272 832.051270 859.450562 842.527466 nan nan
1549505436.744205 /muse/eeg  
1549505436.744188 /muse/eeg ffffff  858.644714 840.109863 854.212463 848.168518 nan nan
1549505436.744227 /muse/eeg  
1549505436.744212 /muse/eeg ffffff  879.194153 844.139221 841.721619 842.124512 nan nan
1549505436.744240 /muse/eeg  
1549505436.744244 /muse/eeg  
1549505436.744247 /muse/eeg  
1549505436.744254 /muse/acc fff  0.124878 0.209900 0.963501
1549505436.744262 /muse/acc fff  0.115723 0.207092 0.964172
1549505436.744267 /muse/acc fff  0.112122 0.214294 0.986267
1549505436.775060 /muse/eeg  
1549505436.774997 /muse/eeg ffffff  827.216125 832.454224 834.468872 844.542114 nan nan
1549505436.775102 /muse/eeg  
1549505436.775087 /muse/eeg ffffff  826.410278 828.021973 830.842468 854.212463 nan nan
1549505436.775127 /muse/eeg  
1549505436.775112 /muse/eeg ffffff  845.347961 834.871765 840.512817 858.644714 nan nan
1549505436.775153 /muse/eeg  
1549505436.775138 /muse/eeg ffffff  852.197815 835.677673 840.915771 850.989014 nan nan
1549505436.775179 /muse/eeg  
1549505436.775164 /muse/eeg ffffff  841.318665 831.648376 842.124512 856.630066 nan nan
1549505436.775208 /muse/eeg  
1549505436.775192 /muse/eeg ffffff  843.736267 831.245422 834.468872 852.600708 nan nan
1549505436.775234 /muse/eeg  
1549505436.775219 /muse/eeg ffffff  853.406616 836.080566 836.483521 861.868103 nan nan
1549505436.776507 /muse/eeg  
1549505436.776742 /muse/eeg  
1549505436.776750 /muse/eeg  
1549505436.776757 /muse/eeg  
1549505436.776764 /muse/eeg  
1549505436.776775 /muse/eeg  
1549505436.776781 /muse/eeg  
1549505436.776786 /muse/eeg  
1549505436.776790 /muse/eeg  
1549505436.776795 /muse/eeg  
1549505436.776804 /muse/eeg  
1549505436.776813 /muse/eeg  
1549505436.776822 /muse/eeg  
1549505436.776831 /muse/eeg  
1549505436.776836 /muse/eeg  
1549505436.776840 /muse/eeg  
1549505436.776845 /muse/eeg  
1549505436.776850 /muse/eeg  
1549505436.776985 /muse/eeg  
1549505436.775245 /muse/eeg ffffff  850.183167 842.930420 855.824158 860.256409 nan nan
1549505436.777026 /muse/eeg  
1549505436.776999 /muse/eeg ffffff  843.333313 838.498169 858.644714 861.465210 nan nan
1549505436.777051 /muse/eeg  
1549505436.777035 /muse/eeg ffffff  848.974365 829.230774 850.183167 864.688660 nan nan
1549505436.777078 /muse/eeg  
1549505436.777062 /muse/eeg ffffff  858.644714 832.454224 837.692322 862.271057 nan nan
1549505436.777106 /muse/eeg  
1549505436.777090 /muse/eeg ffffff  848.974365 837.289368 841.721619 862.271057 nan nan
1549505436.777127 /muse/eeg  
1549505436.777132 /muse/eeg  
1549505436.777136 /muse/eeg  
1549505436.798036 /muse/acc fff  0.105469 0.212463 0.972107
1549505436.798086 /muse/acc fff  0.100708 0.213501 0.958679
1549505436.798112 /muse/acc fff  0.093628 0.213684 0.940857
1549505436.821889 /muse/eeg  
1549505436.821852 /muse/eeg ffffff  847.765564 834.065918 846.153870 859.853455 nan nan
1549505436.821937 /muse/eeg  
1549505436.821921 /muse/eeg ffffff  890.073242 834.871765 842.527466 859.853455 nan nan
1549505436.821962 /muse/eeg  
1549505436.821946 /muse/eeg ffffff  859.450562 839.304016 836.080566 861.868103 nan nan
1549505436.821986 /muse/eeg  
1549505436.821971 /muse/eeg ffffff  804.652039 834.468872 832.857117 861.062256 nan nan
1549505436.822012 /muse/eeg  
1549505436.821997 /muse/eeg ffffff  816.739929 833.260071 837.289368 845.347961 nan nan
1549505436.822039 /muse/eeg  
1549505436.822022 /muse/eeg ffffff  838.498169 837.692322 837.289368 857.838806 nan nan
1549505436.822064 /muse/eeg  
1549505436.822049 /muse/eeg ffffff  863.076904 838.095215 837.692322 871.135559 nan nan
1549505436.822090 /muse/eeg  
1549505436.822075 /muse/eeg ffffff  848.571411 836.886475 831.648376 857.435913 nan nan
1549505436.822116 /muse/eeg  
1549505436.822100 /muse/eeg ffffff  830.036621 840.109863 828.424927 854.212463 nan nan
1549505436.822143 /muse/eeg  
1549505436.822127 /muse/eeg ffffff  834.468872 842.527466 839.706970 841.318665 nan nan
1549505436.822169 /muse/eeg  
1549505436.822153 /muse/eeg ffffff  835.274719 842.527466 840.512817 836.886475 nan nan
1549505436.822195 /muse/eeg  
1549505436.822180 /muse/eeg ffffff  842.124512 840.915771 835.677673 867.106201 nan nan
1549505436.853088 /muse/eeg  
1549505436.853114 /muse/eeg  
1549505436.853118 /muse/eeg  
1549505436.853131 /muse/acc fff  0.074219 0.207642 0.939941
1549505436.853143 /muse/acc fff  0.043701 0.196655 0.971924
1549505436.853150 /muse/acc fff  0.031738 0.186279 0.995361
1549505436.884416 /muse/eeg  
1549505436.884369 /muse/eeg ffffff  866.703308 840.109863 827.216125 853.406616 nan nan
1549505436.884469 /muse/eeg  
1549505436.884448 /muse/eeg ffffff  843.736267 842.930420 826.813171 834.468872 nan nan
1549505436.884511 /muse/eeg  
1549505436.884489 /muse/eeg ffffff  805.457886 840.109863 833.260071 849.780212 nan nan
1549505436.884553 /muse/eeg  
1549505436.884533 /muse/eeg ffffff  817.948730 840.109863 835.274719 853.003662 nan nan
1549505436.884593 /muse/eeg  
1549505436.884572 /muse/eeg ffffff  820.366272 844.542114 836.483521 848.571411 nan nan
1549505436.884632 /muse/eeg  
1549505436.884611 /muse/eeg ffffff  823.186829 843.736267 827.619019 844.139221 nan nan
1549505436.884670 /muse/eeg  
1549505436.884650 /muse/eeg ffffff  832.857117 841.721619 831.648376 850.183167 nan nan
1549505436.884709 /muse/eeg  
1549505436.884689 /muse/eeg ffffff  840.109863 842.124512 848.168518 846.959717 nan nan
1549505436.884747 /muse/eeg  
1549505436.884727 /muse/eeg ffffff  844.542114 842.527466 847.362610 838.498169 nan nan
1549505436.885862 /muse/eeg  
1549505436.886099 /muse/eeg  
1549505436.886109 /muse/eeg  
1549505436.886113 /muse/eeg  
1549505436.886118 /muse/eeg  
1549505436.886122 /muse/eeg  
1549505436.886129 /muse/eeg  
1549505436.886136 /muse/eeg  
1549505436.886145 /muse/eeg  
1549505436.886151 /muse/eeg  
1549505436.886156 /muse/eeg  
1549505436.886161 /muse/eeg  
1549505436.886166 /muse/eeg  
1549505436.886173 /muse/eeg  
1549505436.886178 /muse/eeg  
1549505436.886183 /muse/eeg  
1549505436.886189 /muse/eeg  
1549505436.886194 /muse/eeg  
1549505436.886338 /muse/eeg  
1549505436.884765 /muse/eeg ffffff  837.692322 839.706970 846.556763 856.630066 nan nan
1549505436.886384 /muse/eeg  
1549505436.886355 /muse/eeg ffffff  837.289368 842.930420 841.721619 848.168518 nan nan
1549505436.886414 /muse/eeg  
1549505436.886397 /muse/eeg ffffff  827.216125 848.168518 839.706970 829.633728 nan nan
1549505436.915647 /muse/eeg  
1549505436.915609 /muse/eeg ffffff  838.095215 839.304016 846.556763 852.197815 nan nan
1549505436.915704 /muse/eeg  
1549505436.915677 /muse/eeg ffffff  846.556763 833.260071 847.765564 859.853455 nan nan
1549505436.915742 /muse/eeg  
1549505436.915722 /muse/eeg ffffff  811.904785 834.468872 839.304016 856.227112 nan nan
1549505436.915784 /muse/eeg  
1549505436.915762 /muse/eeg ffffff  833.663025 837.289368 840.109863 857.838806 nan nan
1549505436.915822 /muse/eeg  
1549505436.915802 /muse/eeg ffffff  865.494507 841.318665 844.945068 842.124512 nan nan
1549505436.915859 /muse/eeg  
1549505436.915839 /muse/eeg ffffff  840.915771 837.289368 837.692322 821.978027 nan nan
1549505436.915896 /muse/eeg  
1549505436.915876 /muse/eeg ffffff  828.827820 838.498169 846.153870 846.556763 nan nan
1549505436.915933 /muse/eeg  
1549505436.915913 /muse/eeg ffffff  824.395630 837.692322 846.556763 852.197815 nan nan
1549505436.915971 /muse/eeg  
1549505436.915951 /muse/eeg ffffff  833.260071 835.677673 836.080566 835.274719 nan nan
1549505436.916008 /muse/eeg  
1549505436.915988 /muse/eeg ffffff  824.395630 842.124512 844.139221 829.633728 nan nan
1549505436.916045 /muse/eeg  
1549505436.916026 /muse/eeg ffffff  823.186829 837.289368 842.930420 826.813171 nan nan
1549505436.916082 /muse/eeg  
1549505436.916062 /muse/eeg ffffff  829.633728 827.619019 846.959717 840.512817 nan nan
1549505436.916104 /muse/eeg  
1549505436.916108 /muse/eeg  
1549505436.916112 /muse/eeg  
1549505436.916119 /muse/acc fff  0.033936 0.181335 0.992920
1549505436.916138 /muse/acc fff  0.042664 0.181702 0.978943
1549505436.916147 /muse/acc fff  0.047607 0.189331 0.970276
1549505436.916158 /muse/drlref ff  1697142.875000 1695531.125000
1549505436.916171 /muse/drlref ff  1697142.875000 1695531.125000
1549505436.916184 /muse/drlref ff  1697142.875000 1695531.125000
1549505436.916190 /muse/drlref ff  1697142.875000 1695531.125000
1549505436.916196 /muse/drlref ff  1697142.875000 1695531.125000
1549505436.916206 /muse/drlref ff  1697142.875000 1695531.125000
1549505436.946896 /muse/eeg  
1549505436.946851 /muse/eeg ffffff  819.157532 823.992676 845.750916 850.183167 nan nan
1549505436.946939 /muse/eeg  
1549505436.946923 /muse/eeg ffffff  823.589722 833.260071 839.304016 832.857117 nan nan
1549505436.946964 /muse/eeg  
1549505436.946948 /muse/eeg ffffff  832.051270 840.512817 846.556763 837.289368 nan nan
1549505436.946990 /muse/eeg  
1549505436.946975 /muse/eeg ffffff  826.813171 835.677673 846.556763 857.435913 nan nan
1549505436.947016 /muse/eeg  
1549505436.947000 /muse/eeg ffffff  830.842468 835.274719 840.109863 841.318665 nan nan
1549505436.947042 /muse/eeg  
1549505436.947026 /muse/eeg ffffff  832.857117 839.304016 824.395630 832.051270 nan nan
1549505436.947068 /muse/eeg  
1549505436.947053 /muse/eeg ffffff  837.692322 844.139221 824.395630 834.468872 nan nan
1549505436.947093 /muse/eeg  
1549505436.947079 /muse/eeg ffffff  856.630066 844.542114 838.095215 832.051270 nan nan
1549505436.947119 /muse/eeg  
1549505436.947103 /muse/eeg ffffff  835.677673 846.959717 836.886475 840.109863 nan nan
1549505436.947145 /muse/eeg  
1549505436.947130 /muse/eeg ffffff  842.124512 854.212463 833.663025 836.886475 nan nan
1549505436.947171 /muse/eeg  
1549505436.947156 /muse/eeg ffffff  845.347961 847.765564 821.978027 840.109863 nan nan
1549505436.948240 /muse/eeg  
1549505436.948461 /muse/eeg  
1549505436.948468 /muse/eeg  
1549505436.948474 /muse/eeg  
1549505436.948479 /muse/eeg  
1549505436.948484 /muse/eeg  
1549505436.948488 /muse/eeg  
1549505436.948493 /muse/eeg  
1549505436.948498 /muse/eeg  
1549505436.948503 /muse/eeg  
1549505436.948508 /muse/eeg  
1549505436.948513 /muse/eeg  
1549505436.948518 /muse/eeg  
1549505436.948523 /muse/eeg  
1549505436.948527 /muse/eeg  
1549505436.948533 /muse/eeg  
1549505436.948537 /muse/eeg  
1549505436.948542 /muse/eeg  
1549505436.948663 /muse/eeg  
1549505436.947182 /muse/eeg ffffff  815.934082 836.886475 826.813171 853.406616 nan nan
1549505436.978104 /muse/eeg  
1549505436.978129 /muse/eeg  
1549505436.978134 /muse/eeg  
1549505436.978143 /muse/acc fff  0.056702 0.199890 0.967773
1549505436.978157 /muse/acc fff  0.057922 0.210388 0.970276
1549505436.978166 /muse/acc fff  0.056702 0.213196 0.961121
1549505437.009395 /muse/eeg  
1549505437.009360 /muse/eeg ffffff  826.007324 840.915771 840.915771 854.212463 nan nan
1549505437.009442 /muse/eeg  
1549505437.009424 /muse/eeg ffffff  830.036621 849.780212 830.842468 837.289368 nan nan
1549505437.009468 /muse/eeg  
1549505437.009452 /muse/eeg ffffff  830.036621 852.197815 824.798523 828.827820 nan nan
1549505437.009493 /muse/eeg  
1549505437.009479 /muse/eeg ffffff  840.109863 854.615356 829.230774 840.915771 nan nan
1549505437.009520 /muse/eeg  
1549505437.009505 /muse/eeg ffffff  839.304016 858.241760 823.992676 829.633728 nan nan
1549505437.009546 /muse/eeg  
1549505437.009530 /muse/eeg ffffff  842.930420 861.465210 812.307678 803.846130 nan nan
1549505437.009571 /muse/eeg  
1549505437.009556 /muse/eeg ffffff  820.769226 862.271057 814.725281 810.293030 nan nan
1549505437.009597 /muse/eeg  
1549505437.009582 /muse/eeg ffffff  812.307678 863.882812 812.710632 823.589722 nan nan
1549505437.009623 /muse/eeg  
1549505437.009607 /muse/eeg ffffff  813.919434 865.494507 800.219788 800.622681 nan nan
1549505437.009649 /muse/eeg  
1549505437.009634 /muse/eeg ffffff  813.919434 866.703308 809.487183 813.919434 nan nan
1549505437.009675 /muse/eeg  
1549505437.009660 /muse/eeg ffffff  802.234436 865.897461 819.560425 822.380981 nan nan
1549505437.009702 /muse/eeg  
1549505437.009686 /muse/eeg ffffff  803.040283 863.882812 815.934082 797.399292 nan nan
1549505437.009718 /muse/eeg  
1549505437.009723 /muse/eeg  
1549505437.009726 /muse/eeg  
1549505437.009734 /muse/acc fff  0.036987 0.205078 0.949951
1549505437.009744 /muse/acc fff  0.008850 0.197083 0.952393
1549505437.009749 /muse/acc fff  -0.010254 0.194885 0.963562
1549505437.040638 /muse/eeg  
1549505437.040601 /muse/eeg ffffff  806.263733 856.630066 803.443237 802.234436 nan nan
1549505437.040687 /muse/eeg  
1549505437.040668 /muse/eeg ffffff  810.293030 857.435913 803.846130 802.637390 nan nan
1549505437.040724 /muse/eeg  
1549505437.040704 /muse/eeg ffffff  818.754578 861.465210 812.307678 797.802185 nan nan
1549505437.040760 /muse/eeg  
1549505437.040741 /muse/eeg ffffff  826.813171 858.644714 803.040283 807.875488 nan nan
1549505437.040796 /muse/eeg  
1549505437.040777 /muse/eeg ffffff  813.919434 856.227112 805.457886 805.860779 nan nan
1549505437.040834 /muse/eeg  
1549505437.040814 /muse/eeg ffffff  821.172180 849.780212 803.040283 793.772888 nan nan
1549505437.040864 /muse/eeg  
1549505437.040846 /muse/eeg ffffff  821.575073 851.391968 807.875488 792.967041 nan nan
1549505437.040897 /muse/eeg  
1549505437.040877 /muse/eeg ffffff  815.128235 853.809509 822.783875 813.113525 nan nan
1549505437.040928 /muse/eeg  
1549505437.040909 /muse/eeg ffffff  834.065918 855.421265 823.186829 811.098877 nan nan
1549505437.040959 /muse/eeg  
1549505437.040940 /muse/eeg ffffff  828.021973 857.032959 819.157532 803.846130 nan nan
1549505437.040990 /muse/eeg  
1549505437.040971 /muse/eeg ffffff  815.128235 851.794861 807.472534 813.919434 nan nan
1549505437.041021 /muse/eeg  
1549505437.041002 /muse/eeg ffffff  805.054932 850.586060 812.307678 805.860779 nan nan
1549505437.071837 /muse/eeg  
1549505437.071860 /muse/eeg  
1549505437.071863 /muse/eeg  
1549505437.103056 /muse/acc fff  -0.026733 0.190491 0.997314
1549505437.103101 /muse/acc fff  -0.030334 0.178162 1.008728
